timestampMs,poorSignal,eegRawValue,eegRawValueVolts,attention,meditation,blinkStrength,delta,theta,alphaLow,alphaHigh,betaLow,betaHigh,gammaLow,gammaMid,tagEvent,location
1545003963060,0,44,9.66796875E-6,20,53,58,241119,39513,16746022,18986,10032,9563,4217,4263,Tag0,unknown
1545003963061,0,58,1.2744140625E-5,20,53,58,241119,39513,16746022,18986,10032,9563,4217,4263,Tag0,unknown
1545003963074,0,93,2.04345703125E-5,20,53,58,241119,39513,16746022,18986,10032,9563,4217,4263,Tag0,unknown
1545003963075,0,123,2.70263671875E-5,20,53,58,241119,39513,16746022,18986,10032,9563,4217,4263,Tag0,unknown
1545003963075,0,-110,-2.4169921875E-5,20,53,58,241119,39513,16746022,18986,10032,9563,4217,4263,Tag0,unknown
1545003963075,0,-103,-2.26318359375E-5,20,53,58,241119,39513,16746022,18986,10032,9563,4217,4263,Tag0,unknown
1545003963075,0,-127,-2.79052734375E-5,20,53,58,241119,39513,16746022,18986,10032,9563,4217,4263,Tag0,unknown
1545003963075,0,90,1.9775390625E-5,20,53,58,241119,39513,16746022,18986,10032,9563,4217,4263,Tag0,unknown
1545003963076,0,69,1.51611328125E-5,20,53,58,241119,39513,16746022,18986,10032,9563,4217,4263,Tag0,unknown
1545003963076,0,71,1.56005859375E-5,20,53,58,241119,39513,16746022,18986,10032,9563,4217,4263,Tag0,unknown
1545003963076,0,83,1.82373046875E-5,20,53,58,241119,39513,16746022,18986,10032,9563,4217,4263,Tag0,unknown
1545003963090,0,86,1.8896484375000003E-5,20,53,58,241119,39513,16746022,18986,10032,9563,4217,4263,Tag0,unknown
1545003963092,0,90,1.9775390625E-5,20,53,58,241119,39513,16746022,18986,10032,9563,4217,4263,Tag0,unknown
1545003963093,0,87,1.91162109375E-5,20,53,58,241119,39513,16746022,18986,10032,9563,4217,4263,Tag0,unknown
1545003963093,0,65,1.42822265625E-5,20,53,58,241119,39513,16746022,18986,10032,9563,4217,4263,Tag0,unknown
1545003963093,0,35,7.6904296875E-6,20,53,58,241119,39513,16746022,18986,10032,9563,4217,4263,Tag0,unknown
1545003963093,0,35,7.6904296875E-6,20,53,58,241119,39513,16746022,18986,10032,9563,4217,4263,Tag0,unknown
1545003963094,0,53,1.1645507812500002E-5,20,53,58,241119,39513,16746022,18986,10032,9563,4217,4263,Tag0,unknown
1545003963094,0,59,1.29638671875E-5,20,53,58,241119,39513,16746022,18986,10032,9563,4217,4263,Tag0,unknown
1545003963107,0,53,1.1645507812500002E-5,20,53,58,241119,39513,16746022,18986,10032,9563,4217,4263,Tag0,unknown
1545003963107,0,56,1.23046875E-5,20,53,58,241119,39513,16746022,18986,10032,9563,4217,4263,Tag0,unknown
1545003963107,0,69,1.51611328125E-5,20,53,58,241119,39513,16746022,18986,10032,9563,4217,4263,Tag0,unknown
1545003963107,0,77,1.69189453125E-5,20,53,58,241119,39513,16746022,18986,10032,9563,4217,4263,Tag0,unknown
1545003963108,0,74,1.6259765625E-5,20,53,58,241119,39513,16746022,18986,10032,9563,4217,4263,Tag0,unknown
1545003963108,0,71,1.56005859375E-5,20,53,58,241119,39513,16746022,18986,10032,9563,4217,4263,Tag0,unknown
1545003963108,0,69,1.51611328125E-5,20,53,58,241119,39513,16746022,18986,10032,9563,4217,4263,Tag0,unknown
1545003963108,0,65,1.42822265625E-5,20,53,58,241119,39513,16746022,18986,10032,9563,4217,4263,Tag0,unknown
1545003963123,0,51,1.1206054687499999E-5,20,53,58,241119,39513,16746022,18986,10032,9563,4217,4263,Tag0,unknown
1545003963123,0,55,1.20849609375E-5,20,53,58,241119,39513,16746022,18986,10032,9563,4217,4263,Tag0,unknown
1545003963124,0,77,1.69189453125E-5,20,53,58,241119,39513,16746022,18986,10032,9563,4217,4263,Tag0,unknown
1545003963124,0,82,1.8017578124999998E-5,20,53,58,241119,39513,16746022,18986,10032,9563,4217,4263,Tag0,unknown
1545003963124,0,73,1.6040039062500002E-5,20,53,58,241119,39513,16746022,18986,10032,9563,4217,4263,Tag0,unknown
1545003963124,0,74,1.6259765625E-5,20,53,58,241119,39513,16746022,18986,10032,9563,4217,4263,Tag0,unknown
1545003963124,0,75,1.64794921875E-5,20,53,58,241119,39513,16746022,18986,10032,9563,4217,4263,Tag0,unknown
1545003963124,0,80,1.7578125E-5,20,53,58,241119,39513,16746022,18986,10032,9563,4217,4263,Tag0,unknown
1545003963125,0,81,1.77978515625E-5,20,53,58,241119,39513,16746022,18986,10032,9563,4217,4263,Tag0,unknown
1545003963140,0,77,1.69189453125E-5,20,53,58,241119,39513,16746022,18986,10032,9563,4217,4263,Tag0,unknown
1545003963140,0,76,1.669921875E-5,20,53,58,241119,39513,16746022,18986,10032,9563,4217,4263,Tag0,unknown
1545003963140,0,71,1.56005859375E-5,20,53,58,241119,39513,16746022,18986,10032,9563,4217,4263,Tag0,unknown
1545003963140,0,71,1.56005859375E-5,20,53,58,241119,39513,16746022,18986,10032,9563,4217,4263,Tag0,unknown
1545003963141,0,71,1.56005859375E-5,20,53,58,241119,39513,16746022,18986,10032,9563,4217,4263,Tag0,unknown
1545003963141,0,67,1.4721679687500002E-5,20,53,58,241119,39513,16746022,18986,10032,9563,4217,4263,Tag0,unknown
1545003963141,0,51,1.1206054687499999E-5,20,53,58,241119,39513,16746022,18986,10032,9563,4217,4263,Tag0,unknown
1545003963141,0,42,9.228515625000002E-6,20,53,58,241119,39513,16746022,18986,10032,9563,4217,4263,Tag0,unknown
1545003963141,0,52,1.142578125E-5,20,53,58,241119,39513,16746022,18986,10032,9563,4217,4263,Tag0,unknown
1545003963156,0,67,1.4721679687500002E-5,20,53,58,241119,39513,16746022,18986,10032,9563,4217,4263,Tag0,unknown
1545003963157,0,66,1.4501953125E-5,20,53,58,241119,39513,16746022,18986,10032,9563,4217,4263,Tag0,unknown
1545003963157,0,59,1.29638671875E-5,20,53,58,241119,39513,16746022,18986,10032,9563,4217,4263,Tag0,unknown
1545003963158,0,52,1.142578125E-5,20,53,58,241119,39513,16746022,18986,10032,9563,4217,4263,Tag0,unknown
1545003963158,0,43,9.448242187500001E-6,20,53,58,241119,39513,16746022,18986,10032,9563,4217,4263,Tag0,unknown
1545003963158,0,45,9.8876953125E-6,20,53,58,241119,39513,16746022,18986,10032,9563,4217,4263,Tag0,unknown
1545003963158,0,42,9.228515625000002E-6,20,53,58,241119,39513,16746022,18986,10032,9563,4217,4263,Tag0,unknown
1545003963158,0,36,7.91015625E-6,20,53,58,241119,39513,16746022,18986,10032,9563,4217,4263,Tag0,unknown
1545003963173,0,44,9.66796875E-6,20,53,58,241119,39513,16746022,18986,10032,9563,4217,4263,Tag0,unknown
1545003963173,0,56,1.23046875E-5,20,53,58,241119,39513,16746022,18986,10032,9563,4217,4263,Tag0,unknown
1545003963174,0,53,1.1645507812500002E-5,20,53,58,241119,39513,16746022,18986,10032,9563,4217,4263,Tag0,unknown
1545003963174,0,54,1.1865234375000001E-5,20,53,58,241119,39513,16746022,18986,10032,9563,4217,4263,Tag0,unknown
1545003963174,0,52,1.142578125E-5,20,53,58,241119,39513,16746022,18986,10032,9563,4217,4263,Tag0,unknown
1545003963174,0,38,8.349609375E-6,20,53,58,241119,39513,16746022,18986,10032,9563,4217,4263,Tag0,unknown
1545003963174,0,34,7.4707031250000005E-6,20,53,58,241119,39513,16746022,18986,10032,9563,4217,4263,Tag0,unknown
1545003963174,0,34,7.4707031250000005E-6,20,53,58,241119,39513,16746022,18986,10032,9563,4217,4263,Tag0,unknown
1545003963175,0,32,7.03125E-6,20,53,58,241119,39513,16746022,18986,10032,9563,4217,4263,Tag0,unknown
1545003963190,0,25,5.4931640625E-6,20,53,58,241119,39513,16746022,18986,10032,9563,4217,4263,Tag0,unknown
1545003963190,0,18,3.955078125E-6,20,53,58,241119,39513,16746022,18986,10032,9563,4217,4263,Tag0,unknown
1545003963191,0,18,3.955078125E-6,20,53,58,241119,39513,16746022,18986,10032,9563,4217,4263,Tag0,unknown
1545003963191,0,22,4.833984375E-6,20,53,58,241119,39513,16746022,18986,10032,9563,4217,4263,Tag0,unknown
1545003963191,0,32,7.03125E-6,20,53,58,241119,39513,16746022,18986,10032,9563,4217,4263,Tag0,unknown
1545003963191,0,27,5.9326171875000005E-6,20,53,58,241119,39513,16746022,18986,10032,9563,4217,4263,Tag0,unknown
1545003963191,0,13,2.8564453125E-6,20,53,58,241119,39513,16746022,18986,10032,9563,4217,4263,Tag0,unknown
1545003963191,0,12,2.63671875E-6,20,53,58,241119,39513,16746022,18986,10032,9563,4217,4263,Tag0,unknown
1545003963191,0,18,3.955078125E-6,20,53,58,241119,39513,16746022,18986,10032,9563,4217,4263,Tag0,unknown
1545003963207,0,19,4.1748046875E-6,20,53,58,241119,39513,16746022,18986,10032,9563,4217,4263,Tag0,unknown
1545003963207,0,23,5.0537109375E-6,20,53,58,241119,39513,16746022,18986,10032,9563,4217,4263,Tag0,unknown
1545003963207,0,33,7.2509765625E-6,20,53,58,241119,39513,16746022,18986,10032,9563,4217,4263,Tag0,unknown
1545003963207,0,43,9.448242187500001E-6,20,53,58,241119,39513,16746022,18986,10032,9563,4217,4263,Tag0,unknown
1545003963208,0,33,7.2509765625E-6,20,53,58,241119,39513,16746022,18986,10032,9563,4217,4263,Tag0,unknown
1545003963208,0,23,5.0537109375E-6,20,53,58,241119,39513,16746022,18986,10032,9563,4217,4263,Tag0,unknown
1545003963208,0,39,8.5693359375E-6,20,53,58,241119,39513,16746022,18986,10032,9563,4217,4263,Tag0,unknown
1545003963208,0,53,1.1645507812500002E-5,20,53,58,241119,39513,16746022,18986,10032,9563,4217,4263,Tag0,unknown
1545003963223,0,50,1.0986328125E-5,20,53,58,241119,39513,16746022,18986,10032,9563,4217,4263,Tag0,unknown
1545003963223,0,39,8.5693359375E-6,20,53,58,241119,39513,16746022,18986,10032,9563,4217,4263,Tag0,unknown
1545003963224,0,37,8.1298828125E-6,20,53,58,241119,39513,16746022,18986,10032,9563,4217,4263,Tag0,unknown
1545003963224,0,39,8.5693359375E-6,20,53,58,241119,39513,16746022,18986,10032,9563,4217,4263,Tag0,unknown
1545003963224,0,42,9.228515625000002E-6,20,53,58,241119,39513,16746022,18986,10032,9563,4217,4263,Tag0,unknown
1545003963224,0,50,1.0986328125E-5,20,53,58,241119,39513,16746022,18986,10032,9563,4217,4263,Tag0,unknown
1545003963224,0,49,1.07666015625E-5,20,53,58,241119,39513,16746022,18986,10032,9563,4217,4263,Tag0,unknown
1545003963224,0,35,7.6904296875E-6,20,53,58,241119,39513,16746022,18986,10032,9563,4217,4263,Tag0,unknown
1545003963240,0,26,5.712890625E-6,20,53,58,241119,39513,16746022,18986,10032,9563,4217,4263,Tag0,unknown
1545003963240,0,37,8.1298828125E-6,20,53,58,241119,39513,16746022,18986,10032,9563,4217,4263,Tag0,unknown
1545003963240,0,51,1.1206054687499999E-5,20,53,58,241119,39513,16746022,18986,10032,9563,4217,4263,Tag0,unknown
1545003963240,0,66,1.4501953125E-5,20,53,58,241119,39513,16746022,18986,10032,9563,4217,4263,Tag0,unknown
1545003963240,0,71,1.56005859375E-5,20,53,58,241119,39513,16746022,18986,10032,9563,4217,4263,Tag0,unknown
1545003963241,0,61,1.34033203125E-5,20,53,58,241119,39513,16746022,18986,10032,9563,4217,4263,Tag0,unknown
1545003963241,0,53,1.1645507812500002E-5,20,53,58,241119,39513,16746022,18986,10032,9563,4217,4263,Tag0,unknown
1545003963241,0,65,1.42822265625E-5,20,53,58,241119,39513,16746022,18986,10032,9563,4217,4263,Tag0,unknown
1545003963241,0,74,1.6259765625E-5,20,53,58,241119,39513,16746022,18986,10032,9563,4217,4263,Tag0,unknown
1545003963256,0,83,1.82373046875E-5,20,53,58,241119,39513,16746022,18986,10032,9563,4217,4263,Tag0,unknown
1545003963257,0,82,1.8017578124999998E-5,20,53,58,241119,39513,16746022,18986,10032,9563,4217,4263,Tag0,unknown
1545003963257,0,68,1.4941406250000001E-5,20,53,58,241119,39513,16746022,18986,10032,9563,4217,4263,Tag0,unknown
1545003963257,0,52,1.142578125E-5,20,53,58,241119,39513,16746022,18986,10032,9563,4217,4263,Tag0,unknown
1545003963257,0,55,1.20849609375E-5,20,53,58,241119,39513,16746022,18986,10032,9563,4217,4263,Tag0,unknown
1545003963257,0,64,1.40625E-5,20,53,58,241119,39513,16746022,18986,10032,9563,4217,4263,Tag0,unknown
1545003963258,0,61,1.34033203125E-5,20,53,58,241119,39513,16746022,18986,10032,9563,4217,4263,Tag0,unknown
1545003963258,0,57,1.2524414062500001E-5,20,53,58,241119,39513,16746022,18986,10032,9563,4217,4263,Tag0,unknown
1545003963273,0,57,1.2524414062500001E-5,20,53,58,241119,39513,16746022,18986,10032,9563,4217,4263,Tag0,unknown
1545003963273,0,55,1.20849609375E-5,20,53,58,241119,39513,16746022,18986,10032,9563,4217,4263,Tag0,unknown
1545003963273,0,50,1.0986328125E-5,20,53,58,241119,39513,16746022,18986,10032,9563,4217,4263,Tag0,unknown
1545003963274,0,43,9.448242187500001E-6,20,53,58,241119,39513,16746022,18986,10032,9563,4217,4263,Tag0,unknown
1545003963274,0,36,7.91015625E-6,20,53,58,241119,39513,16746022,18986,10032,9563,4217,4263,Tag0,unknown
1545003963274,0,40,8.7890625E-6,20,53,58,241119,39513,16746022,18986,10032,9563,4217,4263,Tag0,unknown
1545003963274,0,51,1.1206054687499999E-5,20,53,58,241119,39513,16746022,18986,10032,9563,4217,4263,Tag0,unknown
1545003963274,0,52,1.142578125E-5,20,53,58,241119,39513,16746022,18986,10032,9563,4217,4263,Tag0,unknown
1545003963275,0,51,1.1206054687499999E-5,20,53,58,241119,39513,16746022,18986,10032,9563,4217,4263,Tag0,unknown
1545003963289,0,55,1.20849609375E-5,20,53,58,241119,39513,16746022,18986,10032,9563,4217,4263,Tag0,unknown
1545003963290,0,53,1.1645507812500002E-5,20,53,58,241119,39513,16746022,18986,10032,9563,4217,4263,Tag0,unknown
1545003963290,0,58,1.2744140625E-5,20,53,58,241119,39513,16746022,18986,10032,9563,4217,4263,Tag0,unknown
1545003963291,0,67,1.4721679687500002E-5,20,53,58,241119,39513,16746022,18986,10032,9563,4217,4263,Tag0,unknown
1545003963291,0,69,1.51611328125E-5,20,53,58,241119,39513,16746022,18986,10032,9563,4217,4263,Tag0,unknown
1545003963291,0,67,1.4721679687500002E-5,20,53,58,241119,39513,16746022,18986,10032,9563,4217,4263,Tag0,unknown
1545003963291,0,59,1.29638671875E-5,20,53,58,241119,39513,16746022,18986,10032,9563,4217,4263,Tag0,unknown
1545003963291,0,50,1.0986328125E-5,20,53,58,241119,39513,16746022,18986,10032,9563,4217,4263,Tag0,unknown
1545003963291,0,49,1.07666015625E-5,20,53,58,241119,39513,16746022,18986,10032,9563,4217,4263,Tag0,unknown
1545003963308,0,44,9.66796875E-6,20,53,58,241119,39513,16746022,18986,10032,9563,4217,4263,Tag0,unknown
1545003963308,0,40,8.7890625E-6,20,53,58,241119,39513,16746022,18986,10032,9563,4217,4263,Tag0,unknown
1545003963309,0,50,1.0986328125E-5,20,53,58,241119,39513,16746022,18986,10032,9563,4217,4263,Tag0,unknown
1545003963309,0,68,1.4941406250000001E-5,20,53,58,241119,39513,16746022,18986,10032,9563,4217,4263,Tag0,unknown
1545003963309,0,71,1.56005859375E-5,20,53,58,241119,39513,16746022,18986,10032,9563,4217,4263,Tag0,unknown
1545003963316,0,53,1.1645507812500002E-5,20,53,58,241119,39513,16746022,18986,10032,9563,4217,4263,Tag0,unknown
1545003963319,0,53,1.1645507812500002E-5,20,53,58,241119,39513,16746022,18986,10032,9563,4217,4263,Tag0,unknown
1545003963323,0,66,1.4501953125E-5,20,53,58,241119,39513,16746022,18986,10032,9563,4217,4263,Tag0,unknown
1545003963324,0,82,1.8017578124999998E-5,20,53,58,241119,39513,16746022,18986,10032,9563,4217,4263,Tag0,unknown
1545003963324,0,88,1.93359375E-5,20,53,58,241119,39513,16746022,18986,10032,9563,4217,4263,Tag0,unknown
1545003963324,0,80,1.7578125E-5,20,53,58,241119,39513,16746022,18986,10032,9563,4217,4263,Tag0,unknown
1545003963324,0,68,1.4941406250000001E-5,20,53,58,241119,39513,16746022,18986,10032,9563,4217,4263,Tag0,unknown
1545003963325,0,74,1.6259765625E-5,20,53,58,241119,39513,16746022,18986,10032,9563,4217,4263,Tag0,unknown
1545003963325,0,84,1.8457031250000004E-5,20,53,58,241119,39513,16746022,18986,10032,9563,4217,4263,Tag0,unknown
1545003963325,0,71,1.56005859375E-5,20,53,58,241119,39513,16746022,18986,10032,9563,4217,4263,Tag0,unknown
1545003963325,0,54,1.1865234375000001E-5,20,53,58,241119,39513,16746022,18986,10032,9563,4217,4263,Tag0,unknown
1545003963325,0,45,9.8876953125E-6,20,53,58,241119,39513,16746022,18986,10032,9563,4217,4263,Tag0,unknown
1545003963340,0,42,9.228515625000002E-6,20,53,58,241119,39513,16746022,18986,10032,9563,4217,4263,Tag0,unknown
1545003963340,0,39,8.5693359375E-6,20,53,58,241119,39513,16746022,18986,10032,9563,4217,4263,Tag0,unknown
1545003963340,0,37,8.1298828125E-6,20,53,58,241119,39513,16746022,18986,10032,9563,4217,4263,Tag0,unknown
1545003963340,0,35,7.6904296875E-6,20,53,58,241119,39513,16746022,18986,10032,9563,4217,4263,Tag0,unknown
1545003963341,0,23,5.0537109375E-6,20,53,58,241119,39513,16746022,18986,10032,9563,4217,4263,Tag0,unknown
1545003963341,0,10,2.197265625E-6,20,53,58,241119,39513,16746022,18986,10032,9563,4217,4263,Tag0,unknown
1545003963341,0,3,6.591796875E-7,20,53,58,241119,39513,16746022,18986,10032,9563,4217,4263,Tag0,unknown
1545003963341,0,5,1.0986328125E-6,20,53,58,241119,39513,16746022,18986,10032,9563,4217,4263,Tag0,unknown
1545003963356,0,8,1.7578125E-6,20,53,58,241119,39513,16746022,18986,10032,9563,4217,4263,Tag0,unknown
1545003963357,0,8,1.7578125E-6,20,53,58,241119,39513,16746022,18986,10032,9563,4217,4263,Tag0,unknown
1545003963357,0,5,1.0986328125E-6,20,53,58,241119,39513,16746022,18986,10032,9563,4217,4263,Tag0,unknown
1545003963357,0,9,1.9775390625E-6,20,53,58,241119,39513,16746022,18986,10032,9563,4217,4263,Tag0,unknown
1545003963358,0,21,4.614257812500001E-6,20,53,58,241119,39513,16746022,18986,10032,9563,4217,4263,Tag0,unknown
1545003963358,0,21,4.614257812500001E-6,20,53,58,241119,39513,16746022,18986,10032,9563,4217,4263,Tag0,unknown
1545003963358,0,37,8.1298828125E-6,20,53,58,241119,39513,16746022,18986,10032,9563,4217,4263,Tag0,unknown
1545003963358,0,55,1.20849609375E-5,20,53,58,241119,39513,16746022,18986,10032,9563,4217,4263,Tag0,unknown
1545003963359,0,39,8.5693359375E-6,20,53,58,241119,39513,16746022,18986,10032,9563,4217,4263,Tag0,unknown
1545003963373,0,13,2.8564453125E-6,20,53,58,241119,39513,16746022,18986,10032,9563,4217,4263,Tag0,unknown
1545003963373,0,12,2.63671875E-6,20,53,58,241119,39513,16746022,18986,10032,9563,4217,4263,Tag0,unknown
1545003963373,0,27,5.9326171875000005E-6,20,53,58,241119,39513,16746022,18986,10032,9563,4217,4263,Tag0,unknown
1545003963374,0,41,9.008789062499999E-6,20,53,58,241119,39513,16746022,18986,10032,9563,4217,4263,Tag0,unknown
1545003963374,0,33,7.2509765625E-6,20,53,58,241119,39513,16746022,18986,10032,9563,4217,4263,Tag0,unknown
1545003963374,0,36,7.91015625E-6,20,53,58,241119,39513,16746022,18986,10032,9563,4217,4263,Tag0,unknown
1545003963374,0,39,8.5693359375E-6,20,53,58,241119,39513,16746022,18986,10032,9563,4217,4263,Tag0,unknown
1545003963374,0,26,5.712890625E-6,20,53,58,241119,39513,16746022,18986,10032,9563,4217,4263,Tag0,unknown
1545003963374,0,25,5.4931640625E-6,20,53,58,241119,39513,16746022,18986,10032,9563,4217,4263,Tag0,unknown
1545003963390,0,42,9.228515625000002E-6,20,53,58,241119,39513,16746022,18986,10032,9563,4217,4263,Tag0,unknown
1545003963390,0,45,9.8876953125E-6,20,53,58,241119,39513,16746022,18986,10032,9563,4217,4263,Tag0,unknown
1545003963390,0,38,8.349609375E-6,20,53,58,241119,39513,16746022,18986,10032,9563,4217,4263,Tag0,unknown
1545003963390,0,37,8.1298828125E-6,20,53,58,241119,39513,16746022,18986,10032,9563,4217,4263,Tag0,unknown
1545003963391,0,41,9.008789062499999E-6,20,53,58,241119,39513,16746022,18986,10032,9563,4217,4263,Tag0,unknown
1545003963391,0,36,7.91015625E-6,20,53,58,241119,39513,16746022,18986,10032,9563,4217,4263,Tag0,unknown
1545003963391,0,19,4.1748046875E-6,20,53,58,241119,39513,16746022,18986,10032,9563,4217,4263,Tag0,unknown
1545003963391,0,18,3.955078125E-6,20,53,58,241119,39513,16746022,18986,10032,9563,4217,4263,Tag0,unknown
1545003963406,0,33,7.2509765625E-6,20,53,58,241119,39513,16746022,18986,10032,9563,4217,4263,Tag0,unknown
1545003963407,0,43,9.448242187500001E-6,20,53,58,241119,39513,16746022,18986,10032,9563,4217,4263,Tag0,unknown
1545003963407,0,39,8.5693359375E-6,20,53,58,241119,39513,16746022,18986,10032,9563,4217,4263,Tag0,unknown
1545003963407,0,37,8.1298828125E-6,20,53,58,241119,39513,16746022,18986,10032,9563,4217,4263,Tag0,unknown
1545003963407,0,38,8.349609375E-6,20,53,58,241119,39513,16746022,18986,10032,9563,4217,4263,Tag0,unknown
1545003963407,0,35,7.6904296875E-6,20,53,58,241119,39513,16746022,18986,10032,9563,4217,4263,Tag0,unknown
1545003963407,0,36,7.91015625E-6,20,53,58,241119,39513,16746022,18986,10032,9563,4217,4263,Tag0,unknown
1545003963407,0,40,8.7890625E-6,20,53,58,241119,39513,16746022,18986,10032,9563,4217,4263,Tag0,unknown
1545003963423,0,50,1.0986328125E-5,20,53,58,241119,39513,16746022,18986,10032,9563,4217,4263,Tag0,unknown
1545003963423,0,60,1.318359375E-5,20,53,58,241119,39513,16746022,18986,10032,9563,4217,4263,Tag0,unknown
1545003963423,0,60,1.318359375E-5,20,53,58,241119,39513,16746022,18986,10032,9563,4217,4263,Tag0,unknown
1545003963424,0,57,1.2524414062500001E-5,20,53,58,241119,39513,16746022,18986,10032,9563,4217,4263,Tag0,unknown
1545003963424,0,53,1.1645507812500002E-5,20,53,58,241119,39513,16746022,18986,10032,9563,4217,4263,Tag0,unknown
1545003963424,0,52,1.142578125E-5,20,53,58,241119,39513,16746022,18986,10032,9563,4217,4263,Tag0,unknown
1545003963424,0,57,1.2524414062500001E-5,20,53,58,241119,39513,16746022,18986,10032,9563,4217,4263,Tag0,unknown
1545003963425,0,68,1.4941406250000001E-5,20,53,58,241119,39513,16746022,18986,10032,9563,4217,4263,Tag0,unknown
1545003963425,0,72,1.58203125E-5,20,53,58,241119,39513,16746022,18986,10032,9563,4217,4263,Tag0,unknown
1545003963440,0,75,1.64794921875E-5,20,53,58,241119,39513,16746022,18986,10032,9563,4217,4263,Tag0,unknown
1545003963442,0,76,1.669921875E-5,17,50,58,98078,16758354,8467,12119,8932,4603,1537,3029,Tag0,unknown
1545003963442,0,72,1.58203125E-5,17,50,58,98078,16758354,8467,12119,8932,4603,1537,3029,Tag0,unknown
1545003963442,0,66,1.4501953125E-5,17,50,58,98078,16758354,8467,12119,8932,4603,1537,3029,Tag0,unknown
1545003963443,0,53,1.1645507812500002E-5,17,50,58,98078,16758354,8467,12119,8932,4603,1537,3029,Tag0,unknown
1545003963443,0,43,9.448242187500001E-6,17,50,58,98078,16758354,8467,12119,8932,4603,1537,3029,Tag0,unknown
1545003963443,0,41,9.008789062499999E-6,17,50,58,98078,16758354,8467,12119,8932,4603,1537,3029,Tag0,unknown
1545003963458,0,48,1.0546875E-5,17,50,58,98078,16758354,8467,12119,8932,4603,1537,3029,Tag0,unknown
1545003963458,0,57,1.2524414062500001E-5,17,50,58,98078,16758354,8467,12119,8932,4603,1537,3029,Tag0,unknown
1545003963458,0,60,1.318359375E-5,17,50,58,98078,16758354,8467,12119,8932,4603,1537,3029,Tag0,unknown
1545003963459,0,45,9.8876953125E-6,17,50,58,98078,16758354,8467,12119,8932,4603,1537,3029,Tag0,unknown
1545003963459,0,29,6.3720703125E-6,17,50,58,98078,16758354,8467,12119,8932,4603,1537,3029,Tag0,unknown
1545003963459,0,22,4.833984375E-6,17,50,58,98078,16758354,8467,12119,8932,4603,1537,3029,Tag0,unknown
1545003963459,0,21,4.614257812500001E-6,17,50,58,98078,16758354,8467,12119,8932,4603,1537,3029,Tag0,unknown
1545003963459,0,36,7.91015625E-6,17,50,58,98078,16758354,8467,12119,8932,4603,1537,3029,Tag0,unknown
1545003963459,0,50,1.0986328125E-5,17,50,58,98078,16758354,8467,12119,8932,4603,1537,3029,Tag0,unknown
1545003963459,0,57,1.2524414062500001E-5,17,50,58,98078,16758354,8467,12119,8932,4603,1537,3029,Tag0,unknown
1545003963460,0,51,1.1206054687499999E-5,17,50,58,98078,16758354,8467,12119,8932,4603,1537,3029,Tag0,unknown
1545003963473,0,56,1.23046875E-5,17,50,58,98078,16758354,8467,12119,8932,4603,1537,3029,Tag0,unknown
1545003963473,0,74,1.6259765625E-5,17,50,58,98078,16758354,8467,12119,8932,4603,1537,3029,Tag0,unknown
1545003963473,0,85,1.86767578125E-5,17,50,58,98078,16758354,8467,12119,8932,4603,1537,3029,Tag0,unknown
1545003963474,0,83,1.82373046875E-5,17,50,58,98078,16758354,8467,12119,8932,4603,1537,3029,Tag0,unknown
1545003963474,0,77,1.69189453125E-5,17,50,58,98078,16758354,8467,12119,8932,4603,1537,3029,Tag0,unknown
1545003963474,0,69,1.51611328125E-5,17,50,58,98078,16758354,8467,12119,8932,4603,1537,3029,Tag0,unknown
1545003963474,0,58,1.2744140625E-5,17,50,58,98078,16758354,8467,12119,8932,4603,1537,3029,Tag0,unknown
1545003963489,0,58,1.2744140625E-5,17,50,58,98078,16758354,8467,12119,8932,4603,1537,3029,Tag0,unknown
1545003963490,0,66,1.4501953125E-5,17,50,58,98078,16758354,8467,12119,8932,4603,1537,3029,Tag0,unknown
1545003963490,0,71,1.56005859375E-5,17,50,58,98078,16758354,8467,12119,8932,4603,1537,3029,Tag0,unknown
1545003963490,0,72,1.58203125E-5,17,50,58,98078,16758354,8467,12119,8932,4603,1537,3029,Tag0,unknown
1545003963491,0,60,1.318359375E-5,17,50,58,98078,16758354,8467,12119,8932,4603,1537,3029,Tag0,unknown
1545003963491,0,37,8.1298828125E-6,17,50,58,98078,16758354,8467,12119,8932,4603,1537,3029,Tag0,unknown
1545003963491,0,35,7.6904296875E-6,17,50,58,98078,16758354,8467,12119,8932,4603,1537,3029,Tag0,unknown
1545003963491,0,50,1.0986328125E-5,17,50,58,98078,16758354,8467,12119,8932,4603,1537,3029,Tag0,unknown
1545003963491,0,51,1.1206054687499999E-5,17,50,58,98078,16758354,8467,12119,8932,4603,1537,3029,Tag0,unknown
1545003963506,0,48,1.0546875E-5,17,50,58,98078,16758354,8467,12119,8932,4603,1537,3029,Tag0,unknown
1545003963506,0,42,9.228515625000002E-6,17,50,58,98078,16758354,8467,12119,8932,4603,1537,3029,Tag0,unknown
1545003963507,0,48,1.0546875E-5,17,50,58,98078,16758354,8467,12119,8932,4603,1537,3029,Tag0,unknown
1545003963507,0,51,1.1206054687499999E-5,17,50,58,98078,16758354,8467,12119,8932,4603,1537,3029,Tag0,unknown
1545003963507,0,51,1.1206054687499999E-5,17,50,58,98078,16758354,8467,12119,8932,4603,1537,3029,Tag0,unknown
1545003963507,0,39,8.5693359375E-6,17,50,58,98078,16758354,8467,12119,8932,4603,1537,3029,Tag0,unknown
1545003963508,0,25,5.4931640625E-6,17,50,58,98078,16758354,8467,12119,8932,4603,1537,3029,Tag0,unknown
1545003963508,0,25,5.4931640625E-6,17,50,58,98078,16758354,8467,12119,8932,4603,1537,3029,Tag0,unknown
1545003963508,0,40,8.7890625E-6,17,50,58,98078,16758354,8467,12119,8932,4603,1537,3029,Tag0,unknown
1545003963523,0,49,1.07666015625E-5,17,50,58,98078,16758354,8467,12119,8932,4603,1537,3029,Tag0,unknown
1545003963523,0,44,9.66796875E-6,17,50,58,98078,16758354,8467,12119,8932,4603,1537,3029,Tag0,unknown
1545003963523,0,33,7.2509765625E-6,17,50,58,98078,16758354,8467,12119,8932,4603,1537,3029,Tag0,unknown
1545003963523,0,12,2.63671875E-6,17,50,58,98078,16758354,8467,12119,8932,4603,1537,3029,Tag0,unknown
1545003963524,0,9,1.9775390625E-6,17,50,58,98078,16758354,8467,12119,8932,4603,1537,3029,Tag0,unknown
1545003963524,0,9,1.9775390625E-6,17,50,58,98078,16758354,8467,12119,8932,4603,1537,3029,Tag0,unknown
1545003963524,0,11,2.4169921875E-6,17,50,58,98078,16758354,8467,12119,8932,4603,1537,3029,Tag0,unknown
1545003963524,0,7,1.5380859375E-6,17,50,58,98078,16758354,8467,12119,8932,4603,1537,3029,Tag0,unknown
1545003963540,0,3,6.591796875E-7,17,50,58,98078,16758354,8467,12119,8932,4603,1537,3029,Tag0,unknown
1545003963540,0,5,1.0986328125E-6,17,50,58,98078,16758354,8467,12119,8932,4603,1537,3029,Tag0,unknown
1545003963540,0,16,3.515625E-6,17,50,58,98078,16758354,8467,12119,8932,4603,1537,3029,Tag0,unknown
1545003963541,0,11,2.4169921875E-6,17,50,58,98078,16758354,8467,12119,8932,4603,1537,3029,Tag0,unknown
1545003963541,0,1,2.197265625E-7,17,50,58,98078,16758354,8467,12119,8932,4603,1537,3029,Tag0,unknown
1545003963541,0,3,6.591796875E-7,17,50,58,98078,16758354,8467,12119,8932,4603,1537,3029,Tag0,unknown
1545003963541,0,12,2.63671875E-6,17,50,58,98078,16758354,8467,12119,8932,4603,1537,3029,Tag0,unknown
1545003963541,0,24,5.2734375E-6,17,50,58,98078,16758354,8467,12119,8932,4603,1537,3029,Tag0,unknown
1545003963541,0,27,5.9326171875000005E-6,17,50,58,98078,16758354,8467,12119,8932,4603,1537,3029,Tag0,unknown
1545003963556,0,36,7.91015625E-6,17,50,58,98078,16758354,8467,12119,8932,4603,1537,3029,Tag0,unknown
1545003963557,0,41,9.008789062499999E-6,17,50,58,98078,16758354,8467,12119,8932,4603,1537,3029,Tag0,unknown
1545003963557,0,42,9.228515625000002E-6,17,50,58,98078,16758354,8467,12119,8932,4603,1537,3029,Tag0,unknown
1545003963557,0,36,7.91015625E-6,17,50,58,98078,16758354,8467,12119,8932,4603,1537,3029,Tag0,unknown
1545003963557,0,33,7.2509765625E-6,17,50,58,98078,16758354,8467,12119,8932,4603,1537,3029,Tag0,unknown
1545003963557,0,37,8.1298828125E-6,17,50,58,98078,16758354,8467,12119,8932,4603,1537,3029,Tag0,unknown
1545003963557,0,44,9.66796875E-6,17,50,58,98078,16758354,8467,12119,8932,4603,1537,3029,Tag0,unknown
1545003963557,0,49,1.07666015625E-5,17,50,58,98078,16758354,8467,12119,8932,4603,1537,3029,Tag0,unknown
1545003963573,0,43,9.448242187500001E-6,17,50,58,98078,16758354,8467,12119,8932,4603,1537,3029,Tag0,unknown
1545003963573,0,38,8.349609375E-6,17,50,58,98078,16758354,8467,12119,8932,4603,1537,3029,Tag0,unknown
1545003963574,0,45,9.8876953125E-6,17,50,58,98078,16758354,8467,12119,8932,4603,1537,3029,Tag0,unknown
1545003963574,0,70,1.5380859375E-5,17,50,58,98078,16758354,8467,12119,8932,4603,1537,3029,Tag0,unknown
1545003963574,0,82,1.8017578124999998E-5,17,50,58,98078,16758354,8467,12119,8932,4603,1537,3029,Tag0,unknown
1545003963574,0,80,1.7578125E-5,17,50,58,98078,16758354,8467,12119,8932,4603,1537,3029,Tag0,unknown
1545003963574,0,74,1.6259765625E-5,17,50,58,98078,16758354,8467,12119,8932,4603,1537,3029,Tag0,unknown
1545003963574,0,71,1.56005859375E-5,17,50,58,98078,16758354,8467,12119,8932,4603,1537,3029,Tag0,unknown
1545003963574,0,69,1.51611328125E-5,17,50,58,98078,16758354,8467,12119,8932,4603,1537,3029,Tag0,unknown
1545003963596,0,68,1.4941406250000001E-5,17,50,58,98078,16758354,8467,12119,8932,4603,1537,3029,Tag0,unknown
1545003963597,0,65,1.42822265625E-5,17,50,58,98078,16758354,8467,12119,8932,4603,1537,3029,Tag0,unknown
1545003963598,0,55,1.20849609375E-5,17,50,58,98078,16758354,8467,12119,8932,4603,1537,3029,Tag0,unknown
1545003963599,0,41,9.008789062499999E-6,17,50,58,98078,16758354,8467,12119,8932,4603,1537,3029,Tag0,unknown
1545003963600,0,25,5.4931640625E-6,17,50,58,98078,16758354,8467,12119,8932,4603,1537,3029,Tag0,unknown
1545003963601,0,-263,-5.7788085937500005E-5,17,50,58,98078,16758354,8467,12119,8932,4603,1537,3029,Tag0,unknown
1545003963601,0,-290,-6.3720703125E-5,17,50,58,98078,16758354,8467,12119,8932,4603,1537,3029,Tag0,unknown
1545003963602,0,3,6.591796875E-7,17,50,58,98078,16758354,8467,12119,8932,4603,1537,3029,Tag0,unknown
1545003963603,0,74,1.6259765625E-5,17,50,58,98078,16758354,8467,12119,8932,4603,1537,3029,Tag0,unknown
1545003963603,0,107,2.35107421875E-5,17,50,58,98078,16758354,8467,12119,8932,4603,1537,3029,Tag0,unknown
1545003963610,0,83,1.82373046875E-5,17,50,58,98078,16758354,8467,12119,8932,4603,1537,3029,Tag0,unknown
1545003963611,0,5,1.0986328125E-6,17,50,58,98078,16758354,8467,12119,8932,4603,1537,3029,Tag0,unknown
1545003963611,0,-300,-6.591796875E-5,17,50,58,98078,16758354,8467,12119,8932,4603,1537,3029,Tag0,unknown
1545003963611,0,-283,-6.218261718750001E-5,17,50,58,98078,16758354,8467,12119,8932,4603,1537,3029,Tag0,unknown
1545003963611,0,13,2.8564453125E-6,17,50,58,98078,16758354,8467,12119,8932,4603,1537,3029,Tag0,unknown
1545003963611,0,35,7.6904296875E-6,17,50,58,98078,16758354,8467,12119,8932,4603,1537,3029,Tag0,unknown
1545003963628,0,7,1.5380859375E-6,17,50,58,98078,16758354,8467,12119,8932,4603,1537,3029,Tag0,unknown
1545003963628,0,-309,-6.78955078125E-5,17,50,58,98078,16758354,8467,12119,8932,4603,1537,3029,Tag0,unknown
1545003963629,0,-353,-7.75634765625E-5,17,50,58,98078,16758354,8467,12119,8932,4603,1537,3029,Tag0,unknown
1545003963629,0,-373,-8.19580078125E-5,17,50,58,98078,16758354,8467,12119,8932,4603,1537,3029,Tag0,unknown
1545003963630,0,-381,-8.371582031250001E-5,17,50,58,98078,16758354,8467,12119,8932,4603,1537,3029,Tag0,unknown
1545003963631,0,-381,-8.371582031250001E-5,17,50,58,98078,16758354,8467,12119,8932,4603,1537,3029,Tag0,unknown
1545003963631,0,-131,-2.87841796875E-5,17,50,58,98078,16758354,8467,12119,8932,4603,1537,3029,Tag0,unknown
1545003963631,0,-148,-3.251953125E-5,17,50,58,98078,16758354,8467,12119,8932,4603,1537,3029,Tag0,unknown
1545003963631,0,-169,-3.7133789062499996E-5,17,50,58,98078,16758354,8467,12119,8932,4603,1537,3029,Tag0,unknown
1545003963631,0,-184,-4.04296875E-5,17,50,58,98078,16758354,8467,12119,8932,4603,1537,3029,Tag0,unknown
1545003963643,0,-184,-4.04296875E-5,17,50,58,98078,16758354,8467,12119,8932,4603,1537,3029,Tag0,unknown
1545003963644,0,-186,-4.0869140625E-5,17,50,58,98078,16758354,8467,12119,8932,4603,1537,3029,Tag0,unknown
1545003963644,0,-211,-4.63623046875E-5,17,50,58,98078,16758354,8467,12119,8932,4603,1537,3029,Tag0,unknown
1545003963644,0,-233,-5.1196289062500006E-5,17,50,58,98078,16758354,8467,12119,8932,4603,1537,3029,Tag0,unknown
1545003963646,0,-244,-5.361328125E-5,17,50,58,98078,16758354,8467,12119,8932,4603,1537,3029,Tag0,unknown
1545003963646,0,-514,-1.12939453125E-4,17,50,58,98078,16758354,8467,12119,8932,4603,1537,3029,Tag0,unknown
1545003963646,0,-245,-5.38330078125E-5,17,50,58,98078,16758354,8467,12119,8932,4603,1537,3029,Tag0,unknown
1545003963647,0,-216,-4.7460937500000004E-5,17,50,58,98078,16758354,8467,12119,8932,4603,1537,3029,Tag0,unknown
1545003963660,0,-225,-4.94384765625E-5,17,50,58,98078,16758354,8467,12119,8932,4603,1537,3029,Tag0,unknown
1545003963660,0,-250,-5.4931640625E-5,17,50,58,98078,16758354,8467,12119,8932,4603,1537,3029,Tag0,unknown
1545003963660,0,-517,-1.135986328125E-4,17,50,58,98078,16758354,8467,12119,8932,4603,1537,3029,Tag0,unknown
1545003963661,0,-245,-5.38330078125E-5,17,50,58,98078,16758354,8467,12119,8932,4603,1537,3029,Tag0,unknown
1545003963661,0,-217,-4.76806640625E-5,17,50,58,98078,16758354,8467,12119,8932,4603,1537,3029,Tag0,unknown
1545003963661,0,-211,-4.63623046875E-5,17,50,58,98078,16758354,8467,12119,8932,4603,1537,3029,Tag0,unknown
1545003963662,0,-231,-5.07568359375E-5,17,50,58,98078,16758354,8467,12119,8932,4603,1537,3029,Tag0,unknown
1545003963662,0,-246,-5.4052734375E-5,17,50,58,98078,16758354,8467,12119,8932,4603,1537,3029,Tag0,unknown
1545003963663,0,-244,-5.361328125E-5,17,50,58,98078,16758354,8467,12119,8932,4603,1537,3029,Tag0,unknown
1545003963663,0,-231,-5.07568359375E-5,17,50,58,98078,16758354,8467,12119,8932,4603,1537,3029,Tag0,unknown
1545003963674,0,-210,-4.6142578125E-5,17,50,58,98078,16758354,8467,12119,8932,4603,1537,3029,Tag0,unknown
1545003963675,0,-182,-3.9990234375E-5,17,50,58,98078,16758354,8467,12119,8932,4603,1537,3029,Tag0,unknown
1545003963675,0,-177,-3.8891601562500006E-5,17,50,58,98078,16758354,8467,12119,8932,4603,1537,3029,Tag0,unknown
1545003963675,0,-188,-4.1308593750000004E-5,17,50,58,98078,16758354,8467,12119,8932,4603,1537,3029,Tag0,unknown
1545003963676,0,-210,-4.6142578125E-5,17,50,58,98078,16758354,8467,12119,8932,4603,1537,3029,Tag0,unknown
1545003963676,0,-203,-4.460449218750001E-5,17,50,58,98078,16758354,8467,12119,8932,4603,1537,3029,Tag0,unknown
1545003963676,0,-184,-4.04296875E-5,17,50,58,98078,16758354,8467,12119,8932,4603,1537,3029,Tag0,unknown
1545003963690,0,-178,-3.9111328125E-5,17,50,58,98078,16758354,8467,12119,8932,4603,1537,3029,Tag0,unknown
1545003963691,0,-178,-3.9111328125E-5,17,50,58,98078,16758354,8467,12119,8932,4603,1537,3029,Tag0,unknown
1545003963691,0,-188,-4.1308593750000004E-5,17,50,58,98078,16758354,8467,12119,8932,4603,1537,3029,Tag0,unknown
1545003963691,0,-199,-4.3725585937499995E-5,17,50,58,98078,16758354,8467,12119,8932,4603,1537,3029,Tag0,unknown
1545003963691,0,-185,-4.06494140625E-5,17,50,58,98078,16758354,8467,12119,8932,4603,1537,3029,Tag0,unknown
1545003963691,0,-170,-3.7353515625E-5,17,50,58,98078,16758354,8467,12119,8932,4603,1537,3029,Tag0,unknown
1545003963692,0,-170,-3.7353515625E-5,17,50,58,98078,16758354,8467,12119,8932,4603,1537,3029,Tag0,unknown
1545003963692,0,-157,-3.44970703125E-5,17,50,58,98078,16758354,8467,12119,8932,4603,1537,3029,Tag0,unknown
1545003963692,0,-376,-8.261718750000001E-5,17,50,58,98078,16758354,8467,12119,8932,4603,1537,3029,Tag0,unknown
1545003963708,0,-350,-7.6904296875E-5,17,50,58,98078,16758354,8467,12119,8932,4603,1537,3029,Tag0,unknown
1545003963708,0,-341,-7.492675781250002E-5,17,50,58,98078,16758354,8467,12119,8932,4603,1537,3029,Tag0,unknown
1545003963708,0,-339,-7.448730468750001E-5,17,50,58,98078,16758354,8467,12119,8932,4603,1537,3029,Tag0,unknown
1545003963709,0,-334,-7.338867187500001E-5,17,50,58,98078,16758354,8467,12119,8932,4603,1537,3029,Tag0,unknown
1545003963709,0,-332,-7.294921875E-5,17,50,58,98078,16758354,8467,12119,8932,4603,1537,3029,Tag0,unknown
1545003963724,0,-325,-7.14111328125E-5,17,50,58,98078,16758354,8467,12119,8932,4603,1537,3029,Tag0,unknown
1545003963724,0,-309,-6.78955078125E-5,17,50,58,98078,16758354,8467,12119,8932,4603,1537,3029,Tag0,unknown
1545003963725,0,-296,-6.50390625E-5,17,50,58,98078,16758354,8467,12119,8932,4603,1537,3029,Tag0,unknown
1545003963725,0,-289,-6.35009765625E-5,17,50,58,98078,16758354,8467,12119,8932,4603,1537,3029,Tag0,unknown
1545003963725,0,-284,-6.240234375E-5,17,50,58,98078,16758354,8467,12119,8932,4603,1537,3029,Tag0,unknown
1545003963725,0,-269,-5.9106445312499996E-5,17,50,58,98078,16758354,8467,12119,8932,4603,1537,3029,Tag0,unknown
1545003963726,0,7,1.5380859375E-6,17,50,58,98078,16758354,8467,12119,8932,4603,1537,3029,Tag0,unknown
1545003963726,0,18,3.955078125E-6,17,50,58,98078,16758354,8467,12119,8932,4603,1537,3029,Tag0,unknown
1545003963726,0,36,7.91015625E-6,17,50,58,98078,16758354,8467,12119,8932,4603,1537,3029,Tag0,unknown
1545003963726,0,64,1.40625E-5,17,50,58,98078,16758354,8467,12119,8932,4603,1537,3029,Tag0,unknown
1545003963727,0,67,1.4721679687500002E-5,17,50,58,98078,16758354,8467,12119,8932,4603,1537,3029,Tag0,unknown
1545003963748,0,52,1.142578125E-5,17,50,58,98078,16758354,8467,12119,8932,4603,1537,3029,Tag0,unknown
1545003963748,0,68,1.4941406250000001E-5,17,50,58,98078,16758354,8467,12119,8932,4603,1537,3029,Tag0,unknown
1545003963748,0,102,2.2412109374999998E-5,17,50,58,98078,16758354,8467,12119,8932,4603,1537,3029,Tag0,unknown
1545003963749,0,116,2.548828125E-5,17,50,58,98078,16758354,8467,12119,8932,4603,1537,3029,Tag0,unknown
1545003963749,0,108,2.3730468750000002E-5,17,50,58,98078,16758354,8467,12119,8932,4603,1537,3029,Tag0,unknown
1545003963749,0,104,2.28515625E-5,17,50,58,98078,16758354,8467,12119,8932,4603,1537,3029,Tag0,unknown
1545003963749,0,106,2.3291015625000003E-5,17,50,58,98078,16758354,8467,12119,8932,4603,1537,3029,Tag0,unknown
1545003963750,0,118,2.5927734375E-5,17,50,58,98078,16758354,8467,12119,8932,4603,1537,3029,Tag0,unknown
1545003963750,0,-122,-2.6806640625E-5,17,50,58,98078,16758354,8467,12119,8932,4603,1537,3029,Tag0,unknown
1545003963750,0,-103,-2.26318359375E-5,17,50,58,98078,16758354,8467,12119,8932,4603,1537,3029,Tag0,unknown
1545003963750,0,-78,-1.7138671875E-5,17,50,58,98078,16758354,8467,12119,8932,4603,1537,3029,Tag0,unknown
1545003963751,0,-57,-1.2524414062500001E-5,17,50,58,98078,16758354,8467,12119,8932,4603,1537,3029,Tag0,unknown
1545003963751,0,-43,-9.448242187500001E-6,17,50,58,98078,16758354,8467,12119,8932,4603,1537,3029,Tag0,unknown
1545003963751,0,-44,-9.66796875E-6,17,50,58,98078,16758354,8467,12119,8932,4603,1537,3029,Tag0,unknown
1545003963759,0,-47,-1.0327148437500001E-5,17,50,58,98078,16758354,8467,12119,8932,4603,1537,3029,Tag0,unknown
1545003963759,0,-46,-1.0107421875E-5,17,50,58,98078,16758354,8467,12119,8932,4603,1537,3029,Tag0,unknown
1545003963760,0,-41,-9.008789062499999E-6,17,50,58,98078,16758354,8467,12119,8932,4603,1537,3029,Tag0,unknown
1545003963760,0,-41,-9.008789062499999E-6,17,50,58,98078,16758354,8467,12119,8932,4603,1537,3029,Tag0,unknown
1545003963760,0,-47,-1.0327148437500001E-5,17,50,58,98078,16758354,8467,12119,8932,4603,1537,3029,Tag0,unknown
1545003963773,0,-54,-1.1865234375000001E-5,17,50,58,98078,16758354,8467,12119,8932,4603,1537,3029,Tag0,unknown
1545003963773,0,-48,-1.0546875E-5,17,50,58,98078,16758354,8467,12119,8932,4603,1537,3029,Tag0,unknown
1545003963774,0,-37,-8.1298828125E-6,17,50,58,98078,16758354,8467,12119,8932,4603,1537,3029,Tag0,unknown
1545003963774,0,-25,-5.4931640625E-6,17,50,58,98078,16758354,8467,12119,8932,4603,1537,3029,Tag0,unknown
1545003963775,0,-26,-5.712890625E-6,17,50,58,98078,16758354,8467,12119,8932,4603,1537,3029,Tag0,unknown
1545003963775,0,-31,-6.8115234375E-6,17,50,58,98078,16758354,8467,12119,8932,4603,1537,3029,Tag0,unknown
1545003963775,0,-27,-5.9326171875000005E-6,17,50,58,98078,16758354,8467,12119,8932,4603,1537,3029,Tag0,unknown
1545003963790,0,-16,-3.515625E-6,17,50,58,98078,16758354,8467,12119,8932,4603,1537,3029,Tag0,unknown
1545003963790,0,-11,-2.4169921875E-6,17,50,58,98078,16758354,8467,12119,8932,4603,1537,3029,Tag0,unknown
1545003963791,0,-19,-4.1748046875E-6,17,50,58,98078,16758354,8467,12119,8932,4603,1537,3029,Tag0,unknown
1545003963791,0,-21,-4.614257812500001E-6,17,50,58,98078,16758354,8467,12119,8932,4603,1537,3029,Tag0,unknown
1545003963791,0,-26,-5.712890625E-6,17,50,58,98078,16758354,8467,12119,8932,4603,1537,3029,Tag0,unknown
1545003963791,0,-35,-7.6904296875E-6,17,50,58,98078,16758354,8467,12119,8932,4603,1537,3029,Tag0,unknown
1545003963791,0,-29,-6.3720703125E-6,17,50,58,98078,16758354,8467,12119,8932,4603,1537,3029,Tag0,unknown
1545003963792,0,-31,-6.8115234375E-6,17,50,58,98078,16758354,8467,12119,8932,4603,1537,3029,Tag0,unknown
1545003963792,0,-32,-7.03125E-6,17,50,58,98078,16758354,8467,12119,8932,4603,1537,3029,Tag0,unknown
1545003963806,0,-27,-5.9326171875000005E-6,17,50,58,98078,16758354,8467,12119,8932,4603,1537,3029,Tag0,unknown
1545003963807,0,-30,-6.591796875E-6,17,50,58,98078,16758354,8467,12119,8932,4603,1537,3029,Tag0,unknown
1545003963807,0,-39,-8.5693359375E-6,17,50,58,98078,16758354,8467,12119,8932,4603,1537,3029,Tag0,unknown
1545003963807,0,-37,-8.1298828125E-6,17,50,58,98078,16758354,8467,12119,8932,4603,1537,3029,Tag0,unknown
1545003963808,0,-37,-8.1298828125E-6,17,50,58,98078,16758354,8467,12119,8932,4603,1537,3029,Tag0,unknown
1545003963808,0,-38,-8.349609375E-6,17,50,58,98078,16758354,8467,12119,8932,4603,1537,3029,Tag0,unknown
1545003963808,0,-59,-1.29638671875E-5,17,50,58,98078,16758354,8467,12119,8932,4603,1537,3029,Tag0,unknown
1545003963809,0,-77,-1.69189453125E-5,17,50,58,98078,16758354,8467,12119,8932,4603,1537,3029,Tag0,unknown
1545003963823,0,-83,-1.82373046875E-5,17,50,58,98078,16758354,8467,12119,8932,4603,1537,3029,Tag0,unknown
1545003963823,0,-69,-1.51611328125E-5,17,50,58,98078,16758354,8467,12119,8932,4603,1537,3029,Tag0,unknown
1545003963824,0,-56,-1.23046875E-5,17,50,58,98078,16758354,8467,12119,8932,4603,1537,3029,Tag0,unknown
1545003963824,0,-67,-1.4721679687500002E-5,17,50,58,98078,16758354,8467,12119,8932,4603,1537,3029,Tag0,unknown
1545003963824,0,-73,-1.6040039062500002E-5,17,50,58,98078,16758354,8467,12119,8932,4603,1537,3029,Tag0,unknown
1545003963824,0,-69,-1.51611328125E-5,17,50,58,98078,16758354,8467,12119,8932,4603,1537,3029,Tag0,unknown
1545003963824,0,-74,-1.6259765625E-5,17,50,58,98078,16758354,8467,12119,8932,4603,1537,3029,Tag0,unknown
1545003963825,0,-75,-1.64794921875E-5,17,50,58,98078,16758354,8467,12119,8932,4603,1537,3029,Tag0,unknown
1545003963840,0,-71,-1.56005859375E-5,17,50,58,98078,16758354,8467,12119,8932,4603,1537,3029,Tag0,unknown
1545003963840,0,-76,-1.669921875E-5,17,50,58,98078,16758354,8467,12119,8932,4603,1537,3029,Tag0,unknown
1545003963841,0,-87,-1.91162109375E-5,17,50,58,98078,16758354,8467,12119,8932,4603,1537,3029,Tag0,unknown
1545003963841,0,-95,-2.08740234375E-5,17,50,58,98078,16758354,8467,12119,8932,4603,1537,3029,Tag0,unknown
1545003963841,0,-111,-2.43896484375E-5,17,50,58,98078,16758354,8467,12119,8932,4603,1537,3029,Tag0,unknown
1545003963841,0,-122,-2.6806640625E-5,17,50,58,98078,16758354,8467,12119,8932,4603,1537,3029,Tag0,unknown
1545003963841,0,-122,-2.6806640625E-5,17,50,58,98078,16758354,8467,12119,8932,4603,1537,3029,Tag0,unknown
1545003963842,0,-119,-2.6147460937500004E-5,17,50,58,98078,16758354,8467,12119,8932,4603,1537,3029,Tag0,unknown
1545003963842,0,-109,-2.39501953125E-5,17,50,58,98078,16758354,8467,12119,8932,4603,1537,3029,Tag0,unknown
1545003963856,0,-100,-2.197265625E-5,17,50,58,98078,16758354,8467,12119,8932,4603,1537,3029,Tag0,unknown
1545003963857,0,-89,-1.95556640625E-5,17,50,58,98078,16758354,8467,12119,8932,4603,1537,3029,Tag0,unknown
1545003963857,0,-83,-1.82373046875E-5,17,50,58,98078,16758354,8467,12119,8932,4603,1537,3029,Tag0,unknown
1545003963857,0,-73,-1.6040039062500002E-5,17,50,58,98078,16758354,8467,12119,8932,4603,1537,3029,Tag0,unknown
1545003963857,0,-77,-1.69189453125E-5,17,50,58,98078,16758354,8467,12119,8932,4603,1537,3029,Tag0,unknown
1545003963858,0,-89,-1.95556640625E-5,17,50,58,98078,16758354,8467,12119,8932,4603,1537,3029,Tag0,unknown
1545003963859,0,-88,-1.93359375E-5,17,50,58,98078,16758354,8467,12119,8932,4603,1537,3029,Tag0,unknown
1545003963859,0,-80,-1.7578125E-5,17,50,58,98078,16758354,8467,12119,8932,4603,1537,3029,Tag0,unknown
1545003963873,0,-84,-1.8457031250000004E-5,17,50,58,98078,16758354,8467,12119,8932,4603,1537,3029,Tag0,unknown
1545003963873,0,-93,-2.04345703125E-5,17,50,58,98078,16758354,8467,12119,8932,4603,1537,3029,Tag0,unknown
1545003963873,0,-108,-2.3730468750000002E-5,17,50,58,98078,16758354,8467,12119,8932,4603,1537,3029,Tag0,unknown
1545003963874,0,-121,-2.6586914062500003E-5,17,50,58,98078,16758354,8467,12119,8932,4603,1537,3029,Tag0,unknown
1545003963875,0,-123,-2.70263671875E-5,17,50,58,98078,16758354,8467,12119,8932,4603,1537,3029,Tag0,unknown
1545003963875,0,-111,-2.43896484375E-5,17,50,58,98078,16758354,8467,12119,8932,4603,1537,3029,Tag0,unknown
1545003963875,0,-108,-2.3730468750000002E-5,17,50,58,98078,16758354,8467,12119,8932,4603,1537,3029,Tag0,unknown
1545003963875,0,-122,-2.6806640625E-5,17,50,58,98078,16758354,8467,12119,8932,4603,1537,3029,Tag0,unknown
1545003963875,0,114,2.5048828125000003E-5,17,50,58,98078,16758354,8467,12119,8932,4603,1537,3029,Tag0,unknown
1545003963890,0,102,2.2412109374999998E-5,17,50,58,98078,16758354,8467,12119,8932,4603,1537,3029,Tag0,unknown
1545003963890,0,105,2.30712890625E-5,17,50,58,98078,16758354,8467,12119,8932,4603,1537,3029,Tag0,unknown
1545003963890,0,116,2.548828125E-5,17,50,58,98078,16758354,8467,12119,8932,4603,1537,3029,Tag0,unknown
1545003963891,0,-126,-2.7685546875E-5,17,50,58,98078,16758354,8467,12119,8932,4603,1537,3029,Tag0,unknown
1545003963891,0,-119,-2.6147460937500004E-5,17,50,58,98078,16758354,8467,12119,8932,4603,1537,3029,Tag0,unknown
1545003963891,0,-117,-2.5708007812499998E-5,17,50,58,98078,16758354,8467,12119,8932,4603,1537,3029,Tag0,unknown
1545003963892,0,-118,-2.5927734375E-5,17,50,58,98078,16758354,8467,12119,8932,4603,1537,3029,Tag0,unknown
1545003963892,0,-124,-2.724609375E-5,17,50,58,98078,16758354,8467,12119,8932,4603,1537,3029,Tag0,unknown
1545003963906,0,-127,-2.79052734375E-5,17,50,58,98078,16758354,8467,12119,8932,4603,1537,3029,Tag0,unknown
1545003963906,0,-123,-2.70263671875E-5,17,50,58,98078,16758354,8467,12119,8932,4603,1537,3029,Tag0,unknown
1545003963907,0,-126,-2.7685546875E-5,17,50,58,98078,16758354,8467,12119,8932,4603,1537,3029,Tag0,unknown
1545003963908,0,-128,-2.8125E-5,17,50,58,98078,16758354,8467,12119,8932,4603,1537,3029,Tag0,unknown
1545003963908,0,-112,-2.4609375E-5,17,50,58,98078,16758354,8467,12119,8932,4603,1537,3029,Tag0,unknown
1545003963908,0,-107,-2.35107421875E-5,17,50,58,98078,16758354,8467,12119,8932,4603,1537,3029,Tag0,unknown
1545003963909,0,-121,-2.6586914062500003E-5,17,50,58,98078,16758354,8467,12119,8932,4603,1537,3029,Tag0,unknown
1545003963909,0,119,2.6147460937500004E-5,17,50,58,98078,16758354,8467,12119,8932,4603,1537,3029,Tag0,unknown
1545003963910,0,108,2.3730468750000002E-5,17,50,58,98078,16758354,8467,12119,8932,4603,1537,3029,Tag0,unknown
1545003963927,0,83,1.82373046875E-5,17,50,58,98078,16758354,8467,12119,8932,4603,1537,3029,Tag0,unknown
1545003963927,0,56,1.23046875E-5,17,50,58,98078,16758354,8467,12119,8932,4603,1537,3029,Tag0,unknown
1545003963928,0,53,1.1645507812500002E-5,17,50,58,98078,16758354,8467,12119,8932,4603,1537,3029,Tag0,unknown
1545003963928,0,75,1.64794921875E-5,17,50,58,98078,16758354,8467,12119,8932,4603,1537,3029,Tag0,unknown
1545003963928,0,108,2.3730468750000002E-5,17,50,58,98078,16758354,8467,12119,8932,4603,1537,3029,Tag0,unknown
1545003963928,0,-123,-2.70263671875E-5,17,50,58,98078,16758354,8467,12119,8932,4603,1537,3029,Tag0,unknown
1545003963929,0,-116,-2.548828125E-5,17,50,58,98078,16758354,8467,12119,8932,4603,1537,3029,Tag0,unknown
1545003963929,0,-109,-2.39501953125E-5,17,50,58,98078,16758354,8467,12119,8932,4603,1537,3029,Tag0,unknown
1545003963929,0,-103,-2.26318359375E-5,17,50,58,98078,16758354,8467,12119,8932,4603,1537,3029,Tag0,unknown
1545003963929,0,-91,-1.99951171875E-5,17,50,58,98078,16758354,8467,12119,8932,4603,1537,3029,Tag0,unknown
1545003963929,0,-83,-1.82373046875E-5,17,50,58,98078,16758354,8467,12119,8932,4603,1537,3029,Tag0,unknown
1545003963942,0,-84,-1.8457031250000004E-5,17,50,58,98078,16758354,8467,12119,8932,4603,1537,3029,Tag0,unknown
1545003963944,0,-93,-2.04345703125E-5,17,50,58,98078,16758354,8467,12119,8932,4603,1537,3029,Tag0,unknown
1545003963945,0,-110,-2.4169921875E-5,17,50,58,98078,16758354,8467,12119,8932,4603,1537,3029,Tag0,unknown
1545003963945,0,-122,-2.6806640625E-5,17,50,58,98078,16758354,8467,12119,8932,4603,1537,3029,Tag0,unknown
1545003963946,0,-123,-2.70263671875E-5,17,50,58,98078,16758354,8467,12119,8932,4603,1537,3029,Tag0,unknown
1545003963947,0,-128,-2.8125E-5,17,50,58,98078,16758354,8467,12119,8932,4603,1537,3029,Tag0,unknown
1545003963948,0,112,2.4609375E-5,17,50,58,98078,16758354,8467,12119,8932,4603,1537,3029,Tag0,unknown
1545003963957,0,101,2.2192382812500002E-5,17,50,58,98078,16758354,8467,12119,8932,4603,1537,3029,Tag0,unknown
1545003963957,0,107,2.35107421875E-5,17,50,58,98078,16758354,8467,12119,8932,4603,1537,3029,Tag0,unknown
1545003963958,0,122,2.6806640625E-5,17,50,58,98078,16758354,8467,12119,8932,4603,1537,3029,Tag0,unknown
1545003963958,0,-123,-2.70263671875E-5,17,50,58,98078,16758354,8467,12119,8932,4603,1537,3029,Tag0,unknown
1545003963958,0,-120,-2.63671875E-5,17,50,58,98078,16758354,8467,12119,8932,4603,1537,3029,Tag0,unknown
1545003963959,0,-118,-2.5927734375E-5,17,50,58,98078,16758354,8467,12119,8932,4603,1537,3029,Tag0,unknown
1545003963959,0,-125,-2.74658203125E-5,17,50,58,98078,16758354,8467,12119,8932,4603,1537,3029,Tag0,unknown
1545003963960,0,118,2.5927734375E-5,17,50,58,98078,16758354,8467,12119,8932,4603,1537,3029,Tag0,unknown
1545003963960,0,104,2.28515625E-5,17,50,58,98078,16758354,8467,12119,8932,4603,1537,3029,Tag0,unknown
1545003963975,0,88,1.93359375E-5,17,50,58,98078,16758354,8467,12119,8932,4603,1537,3029,Tag0,unknown
1545003963975,0,72,1.58203125E-5,17,50,58,98078,16758354,8467,12119,8932,4603,1537,3029,Tag0,unknown
1545003963975,0,55,1.20849609375E-5,17,50,58,98078,16758354,8467,12119,8932,4603,1537,3029,Tag0,unknown
1545003963975,0,44,9.66796875E-6,17,50,58,98078,16758354,8467,12119,8932,4603,1537,3029,Tag0,unknown
1545003963976,0,66,1.4501953125E-5,17,50,58,98078,16758354,8467,12119,8932,4603,1537,3029,Tag0,unknown
1545003963976,0,87,1.91162109375E-5,17,50,58,98078,16758354,8467,12119,8932,4603,1537,3029,Tag0,unknown
1545003963976,0,81,1.77978515625E-5,17,50,58,98078,16758354,8467,12119,8932,4603,1537,3029,Tag0,unknown
1545003963977,0,55,1.20849609375E-5,17,50,58,98078,16758354,8467,12119,8932,4603,1537,3029,Tag0,unknown
1545003963992,0,48,1.0546875E-5,17,50,58,98078,16758354,8467,12119,8932,4603,1537,3029,Tag0,unknown
1545003963993,0,54,1.1865234375000001E-5,17,50,58,98078,16758354,8467,12119,8932,4603,1537,3029,Tag0,unknown
1545003963993,0,65,1.42822265625E-5,17,50,58,98078,16758354,8467,12119,8932,4603,1537,3029,Tag0,unknown
1545003963993,0,69,1.51611328125E-5,17,50,58,98078,16758354,8467,12119,8932,4603,1537,3029,Tag0,unknown
1545003963994,0,66,1.4501953125E-5,17,50,58,98078,16758354,8467,12119,8932,4603,1537,3029,Tag0,unknown
1545003963994,0,42,9.228515625000002E-6,17,50,58,98078,16758354,8467,12119,8932,4603,1537,3029,Tag0,unknown
1545003963994,0,13,2.8564453125E-6,17,50,58,98078,16758354,8467,12119,8932,4603,1537,3029,Tag0,unknown
1545003963994,0,18,3.955078125E-6,17,50,58,98078,16758354,8467,12119,8932,4603,1537,3029,Tag0,unknown
1545003963995,0,41,9.008789062499999E-6,17,50,58,98078,16758354,8467,12119,8932,4603,1537,3029,Tag0,unknown
1545003964006,0,39,8.5693359375E-6,17,50,58,98078,16758354,8467,12119,8932,4603,1537,3029,Tag0,unknown
1545003964006,0,23,5.0537109375E-6,17,50,58,98078,16758354,8467,12119,8932,4603,1537,3029,Tag0,unknown
1545003964007,0,25,5.4931640625E-6,17,50,58,98078,16758354,8467,12119,8932,4603,1537,3029,Tag0,unknown
1545003964008,0,37,8.1298828125E-6,17,50,58,98078,16758354,8467,12119,8932,4603,1537,3029,Tag0,unknown
1545003964008,0,43,9.448242187500001E-6,17,50,58,98078,16758354,8467,12119,8932,4603,1537,3029,Tag0,unknown
1545003964008,0,43,9.448242187500001E-6,17,50,58,98078,16758354,8467,12119,8932,4603,1537,3029,Tag0,unknown
1545003964008,0,12,2.63671875E-6,17,50,58,98078,16758354,8467,12119,8932,4603,1537,3029,Tag0,unknown
1545003964025,0,-293,-6.43798828125E-5,17,50,58,98078,16758354,8467,12119,8932,4603,1537,3029,Tag0,unknown
1545003964025,0,-326,-7.163085937500001E-5,17,50,58,98078,16758354,8467,12119,8932,4603,1537,3029,Tag0,unknown
1545003964026,0,-325,-7.14111328125E-5,17,50,58,98078,16758354,8467,12119,8932,4603,1537,3029,Tag0,unknown
1545003964026,0,-280,-6.15234375E-5,17,50,58,98078,16758354,8467,12119,8932,4603,1537,3029,Tag0,unknown
1545003964026,0,52,1.142578125E-5,17,50,58,98078,16758354,8467,12119,8932,4603,1537,3029,Tag0,unknown
1545003964026,0,-126,-2.7685546875E-5,17,50,58,98078,16758354,8467,12119,8932,4603,1537,3029,Tag0,unknown
1545003964027,0,-70,-1.5380859375E-5,17,50,58,98078,16758354,8467,12119,8932,4603,1537,3029,Tag0,unknown
1545003964027,0,-36,-7.91015625E-6,17,50,58,98078,16758354,8467,12119,8932,4603,1537,3029,Tag0,unknown
1545003964039,0,-4,-8.7890625E-7,17,50,58,98078,16758354,8467,12119,8932,4603,1537,3029,Tag0,unknown
1545003964040,0,294,6.4599609375E-5,17,50,58,98078,16758354,8467,12119,8932,4603,1537,3029,Tag0,unknown
1545003964040,0,332,7.294921875E-5,17,50,58,98078,16758354,8467,12119,8932,4603,1537,3029,Tag0,unknown
1545003964040,0,373,8.19580078125E-5,17,50,58,98078,16758354,8467,12119,8932,4603,1537,3029,Tag0,unknown
1545003964041,0,155,3.40576171875E-5,17,50,58,98078,16758354,8467,12119,8932,4603,1537,3029,Tag0,unknown
1545003964041,0,194,4.2626953125E-5,17,50,58,98078,16758354,8467,12119,8932,4603,1537,3029,Tag0,unknown
1545003964041,0,218,4.7900390625E-5,17,50,58,98078,16758354,8467,12119,8932,4603,1537,3029,Tag0,unknown
1545003964041,0,201,4.41650390625E-5,17,50,58,98078,16758354,8467,12119,8932,4603,1537,3029,Tag0,unknown
1545003964041,0,165,3.62548828125E-5,17,50,58,98078,16758354,8467,12119,8932,4603,1537,3029,Tag0,unknown
1545003964057,0,167,3.6694335937500004E-5,17,50,58,98078,16758354,8467,12119,8932,4603,1537,3029,Tag0,unknown
1545003964057,0,224,4.921875E-5,17,50,58,98078,16758354,8467,12119,8932,4603,1537,3029,Tag0,unknown
1545003964058,0,544,1.1953125000000001E-4,17,50,58,98078,16758354,8467,12119,8932,4603,1537,3029,Tag0,unknown
1545003964058,0,587,1.2897949218750003E-4,17,50,58,98078,16758354,8467,12119,8932,4603,1537,3029,Tag0,unknown
1545003964058,0,601,1.3205566406249998E-4,17,50,58,98078,16758354,8467,12119,8932,4603,1537,3029,Tag0,unknown
1545003964058,0,609,1.338134765625E-4,17,50,58,98078,16758354,8467,12119,8932,4603,1537,3029,Tag0,unknown
1545003964059,0,619,1.360107421875E-4,17,50,58,98078,16758354,8467,12119,8932,4603,1537,3029,Tag0,unknown
1545003964059,0,387,8.50341796875E-5,17,50,58,98078,16758354,8467,12119,8932,4603,1537,3029,Tag0,unknown
1545003964059,0,417,9.16259765625E-5,17,50,58,98078,16758354,8467,12119,8932,4603,1537,3029,Tag0,unknown
1545003964080,0,427,9.382324218750001E-5,17,50,58,98078,16758354,8467,12119,8932,4603,1537,3029,Tag0,unknown
1545003964081,0,419,9.206542968750001E-5,17,50,58,98078,16758354,8467,12119,8932,4603,1537,3029,Tag0,unknown
1545003964082,0,406,8.920898437500001E-5,17,50,58,98078,16758354,8467,12119,8932,4603,1537,3029,Tag0,unknown
1545003964082,0,410,9.0087890625E-5,17,50,58,98078,16758354,8467,12119,8932,4603,1537,3029,Tag0,unknown
1545003964082,0,441,9.689941406250001E-5,17,50,58,98078,16758354,8467,12119,8932,4603,1537,3029,Tag0,unknown
1545003964082,0,486,1.06787109375E-4,17,50,58,98078,16758354,8467,12119,8932,4603,1537,3029,Tag0,unknown
1545003964083,0,502,1.1030273437500001E-4,17,50,58,98078,16758354,8467,12119,8932,4603,1537,3029,Tag0,unknown
1545003964083,0,484,1.0634765625000001E-4,17,50,58,98078,16758354,8467,12119,8932,4603,1537,3029,Tag0,unknown
1545003964083,0,445,9.77783203125E-5,17,50,58,98078,16758354,8467,12119,8932,4603,1537,3029,Tag0,unknown
1545003964084,0,420,9.228515625E-5,17,50,58,98078,16758354,8467,12119,8932,4603,1537,3029,Tag0,unknown
1545003964084,0,412,9.052734375E-5,17,50,58,98078,16758354,8467,12119,8932,4603,1537,3029,Tag0,unknown
1545003964084,0,411,9.03076171875E-5,17,50,58,98078,16758354,8467,12119,8932,4603,1537,3029,Tag0,unknown
1545003964090,0,416,9.140625E-5,17,50,58,98078,16758354,8467,12119,8932,4603,1537,3029,Tag0,unknown
1545003964090,0,402,8.8330078125E-5,17,50,58,98078,16758354,8467,12119,8932,4603,1537,3029,Tag0,unknown
1545003964090,0,628,1.3798828125E-4,17,50,58,98078,16758354,8467,12119,8932,4603,1537,3029,Tag0,unknown
1545003964091,0,605,1.329345703125E-4,17,50,58,98078,16758354,8467,12119,8932,4603,1537,3029,Tag0,unknown
1545003964091,0,596,1.3095703125E-4,17,50,58,98078,16758354,8467,12119,8932,4603,1537,3029,Tag0,unknown
1545003964109,0,582,1.27880859375E-4,17,50,58,98078,16758354,8467,12119,8932,4603,1537,3029,Tag0,unknown
1545003964109,0,563,1.237060546875E-4,17,50,58,98078,16758354,8467,12119,8932,4603,1537,3029,Tag0,unknown
1545003964110,0,549,1.2062988281250001E-4,17,50,58,98078,16758354,8467,12119,8932,4603,1537,3029,Tag0,unknown
1545003964110,0,537,1.179931640625E-4,17,50,58,98078,16758354,8467,12119,8932,4603,1537,3029,Tag0,unknown
1545003964110,0,521,1.1447753906250001E-4,17,50,58,98078,16758354,8467,12119,8932,4603,1537,3029,Tag0,unknown
1545003964110,0,237,5.2075195312500004E-5,17,50,58,98078,16758354,8467,12119,8932,4603,1537,3029,Tag0,unknown
1545003964110,0,203,4.460449218750001E-5,17,50,58,98078,16758354,8467,12119,8932,4603,1537,3029,Tag0,unknown
1545003964111,0,179,3.93310546875E-5,17,50,58,98078,16758354,8467,12119,8932,4603,1537,3029,Tag0,unknown
1545003964111,0,157,3.44970703125E-5,17,50,58,98078,16758354,8467,12119,8932,4603,1537,3029,Tag0,unknown
1545003964123,0,139,3.0541992187500004E-5,17,50,58,98078,16758354,8467,12119,8932,4603,1537,3029,Tag0,unknown
1545003964123,0,368,8.0859375E-5,17,50,58,98078,16758354,8467,12119,8932,4603,1537,3029,Tag0,unknown
1545003964124,0,339,7.448730468750001E-5,17,50,58,98078,16758354,8467,12119,8932,4603,1537,3029,Tag0,unknown
1545003964124,0,321,7.053222656250001E-5,17,50,58,98078,16758354,8467,12119,8932,4603,1537,3029,Tag0,unknown
1545003964124,0,304,6.6796875E-5,17,50,58,98078,16758354,8467,12119,8932,4603,1537,3029,Tag0,unknown
1545003964124,0,272,5.9765625000000004E-5,17,50,58,98078,16758354,8467,12119,8932,4603,1537,3029,Tag0,unknown
1545003964124,0,-30,-6.591796875E-6,17,50,58,98078,16758354,8467,12119,8932,4603,1537,3029,Tag0,unknown
1545003964124,0,-64,-1.40625E-5,17,50,58,98078,16758354,8467,12119,8932,4603,1537,3029,Tag0,unknown
1545003964147,0,-85,-1.86767578125E-5,17,50,58,98078,16758354,8467,12119,8932,4603,1537,3029,Tag0,unknown
1545003964150,0,-101,-2.2192382812500002E-5,17,50,58,98078,16758354,8467,12119,8932,4603,1537,3029,Tag0,unknown
1545003964150,0,-117,-2.5708007812499998E-5,17,50,58,98078,16758354,8467,12119,8932,4603,1537,3029,Tag0,unknown
1545003964151,0,116,2.548828125E-5,17,50,58,98078,16758354,8467,12119,8932,4603,1537,3029,Tag0,unknown
1545003964151,0,86,1.8896484375000003E-5,17,50,58,98078,16758354,8467,12119,8932,4603,1537,3029,Tag0,unknown
1545003964151,0,49,1.07666015625E-5,17,50,58,98078,16758354,8467,12119,8932,4603,1537,3029,Tag0,unknown
1545003964151,0,5,1.0986328125E-6,17,50,58,98078,16758354,8467,12119,8932,4603,1537,3029,Tag0,unknown
1545003964151,0,-275,-6.04248046875E-5,17,50,58,98078,16758354,8467,12119,8932,4603,1537,3029,Tag0,unknown
1545003964152,0,-306,-6.723632812500001E-5,17,50,58,98078,16758354,8467,12119,8932,4603,1537,3029,Tag0,unknown
1545003964152,0,-327,-7.18505859375E-5,17,50,58,98078,16758354,8467,12119,8932,4603,1537,3029,Tag0,unknown
1545003964152,0,-331,-7.272949218750001E-5,17,50,58,98078,16758354,8467,12119,8932,4603,1537,3029,Tag0,unknown
1545003964152,0,-355,-7.80029296875E-5,17,50,58,98078,16758354,8467,12119,8932,4603,1537,3029,Tag0,unknown
1545003964157,0,-141,-3.09814453125E-5,17,50,58,98078,16758354,8467,12119,8932,4603,1537,3029,Tag0,unknown
1545003964157,0,-186,-4.0869140625E-5,17,50,58,98078,16758354,8467,12119,8932,4603,1537,3029,Tag0,unknown
1545003964157,0,-197,-4.32861328125E-5,17,50,58,98078,16758354,8467,12119,8932,4603,1537,3029,Tag0,unknown
1545003964158,0,-195,-4.28466796875E-5,17,50,58,98078,16758354,8467,12119,8932,4603,1537,3029,Tag0,unknown
1545003964160,0,-218,-4.7900390625E-5,17,50,58,98078,16758354,8467,12119,8932,4603,1537,3029,Tag0,unknown
1545003964173,0,-244,-5.361328125E-5,17,50,58,98078,16758354,8467,12119,8932,4603,1537,3029,Tag0,unknown
1545003964173,0,-250,-5.4931640625E-5,17,50,58,98078,16758354,8467,12119,8932,4603,1537,3029,Tag0,unknown
1545003964173,0,-242,-5.3173828125000005E-5,17,50,58,98078,16758354,8467,12119,8932,4603,1537,3029,Tag0,unknown
1545003964174,0,-247,-5.42724609375E-5,17,50,58,98078,16758354,8467,12119,8932,4603,1537,3029,Tag0,unknown
1545003964174,0,-523,-1.149169921875E-4,17,50,58,98078,16758354,8467,12119,8932,4603,1537,3029,Tag0,unknown
1545003964174,0,-534,-1.17333984375E-4,17,50,58,98078,16758354,8467,12119,8932,4603,1537,3029,Tag0,unknown
1545003964175,0,-521,-1.1447753906250001E-4,17,50,58,98078,16758354,8467,12119,8932,4603,1537,3029,Tag0,unknown
1545003964175,0,-514,-1.12939453125E-4,17,50,58,98078,16758354,8467,12119,8932,4603,1537,3029,Tag0,unknown
1545003964190,0,-529,-1.162353515625E-4,17,50,58,98078,16758354,8467,12119,8932,4603,1537,3029,Tag0,unknown
1545003964190,0,-551,-1.210693359375E-4,17,50,58,98078,16758354,8467,12119,8932,4603,1537,3029,Tag0,unknown
1545003964190,0,-552,-1.212890625E-4,17,50,58,98078,16758354,8467,12119,8932,4603,1537,3029,Tag0,unknown
1545003964191,0,-536,-1.1777343750000001E-4,17,50,58,98078,16758354,8467,12119,8932,4603,1537,3029,Tag0,unknown
1545003964191,0,-539,-1.1843261718750001E-4,17,50,58,98078,16758354,8467,12119,8932,4603,1537,3029,Tag0,unknown
1545003964192,0,-561,-1.232666015625E-4,17,50,58,98078,16758354,8467,12119,8932,4603,1537,3029,Tag0,unknown
1545003964192,0,-569,-1.250244140625E-4,17,50,58,98078,16758354,8467,12119,8932,4603,1537,3029,Tag0,unknown
1545003964192,0,-581,-1.276611328125E-4,17,50,58,98078,16758354,8467,12119,8932,4603,1537,3029,Tag0,unknown
1545003964192,0,-597,-1.3117675781250003E-4,17,50,58,98078,16758354,8467,12119,8932,4603,1537,3029,Tag0,unknown
1545003964208,0,-612,-1.3447265625000002E-4,17,50,58,98078,16758354,8467,12119,8932,4603,1537,3029,Tag0,unknown
1545003964209,0,-621,-1.364501953125E-4,17,50,58,98078,16758354,8467,12119,8932,4603,1537,3029,Tag0,unknown
1545003964209,0,-629,-1.382080078125E-4,17,50,58,98078,16758354,8467,12119,8932,4603,1537,3029,Tag0,unknown
1545003964211,0,-385,-8.45947265625E-5,17,50,58,98078,16758354,8467,12119,8932,4603,1537,3029,Tag0,unknown
1545003964212,0,-386,-8.481445312500001E-5,17,50,58,98078,16758354,8467,12119,8932,4603,1537,3029,Tag0,unknown
1545003964212,0,-622,-1.3666992187500002E-4,17,50,58,98078,16758354,8467,12119,8932,4603,1537,3029,Tag0,unknown
1545003964212,0,-627,-1.377685546875E-4,17,50,58,98078,16758354,8467,12119,8932,4603,1537,3029,Tag0,unknown
1545003964212,0,-391,-8.591308593750001E-5,17,50,58,98078,16758354,8467,12119,8932,4603,1537,3029,Tag0,unknown
1545003964212,0,-413,-9.07470703125E-5,17,50,58,98078,16758354,8467,12119,8932,4603,1537,3029,Tag0,unknown
1545003964223,0,-418,-9.1845703125E-5,17,50,58,98078,16758354,8467,12119,8932,4603,1537,3029,Tag0,unknown
1545003964224,0,-412,-9.052734375E-5,17,50,58,98078,16758354,8467,12119,8932,4603,1537,3029,Tag0,unknown
1545003964224,0,-409,-8.986816406250001E-5,17,50,58,98078,16758354,8467,12119,8932,4603,1537,3029,Tag0,unknown
1545003964225,0,-405,-8.89892578125E-5,17,50,58,98078,16758354,8467,12119,8932,4603,1537,3029,Tag0,unknown
1545003964225,0,-404,-8.876953125000001E-5,17,50,58,98078,16758354,8467,12119,8932,4603,1537,3029,Tag0,unknown
1545003964225,0,-393,-8.63525390625E-5,17,50,58,98078,16758354,8467,12119,8932,4603,1537,3029,Tag0,unknown
1545003964225,0,-389,-8.54736328125E-5,17,50,58,98078,16758354,8467,12119,8932,4603,1537,3029,Tag0,unknown
1545003964225,0,-395,-8.67919921875E-5,17,50,58,98078,16758354,8467,12119,8932,4603,1537,3029,Tag0,unknown
1545003964242,0,-404,-8.876953125000001E-5,17,50,58,98078,16758354,8467,12119,8932,4603,1537,3029,Tag0,unknown
1545003964242,0,-397,-8.72314453125E-5,17,50,58,98078,16758354,8467,12119,8932,4603,1537,3029,Tag0,unknown
1545003964242,0,-385,-8.45947265625E-5,17,50,58,98078,16758354,8467,12119,8932,4603,1537,3029,Tag0,unknown
1545003964243,0,-637,-1.399658203125E-4,17,50,58,98078,16758354,8467,12119,8932,4603,1537,3029,Tag0,unknown
1545003964243,0,-631,-1.386474609375E-4,17,50,58,98078,16758354,8467,12119,8932,4603,1537,3029,Tag0,unknown
1545003964243,0,-617,-1.355712890625E-4,17,50,58,98078,16758354,8467,12119,8932,4603,1537,3029,Tag0,unknown
1545003964243,0,-613,-1.3469238281250002E-4,17,50,58,98078,16758354,8467,12119,8932,4603,1537,3029,Tag0,unknown
1545003964243,0,-614,-1.34912109375E-4,17,50,58,98078,16758354,8467,12119,8932,4603,1537,3029,Tag0,unknown
1545003964244,0,-615,-1.351318359375E-4,17,50,58,98078,16758354,8467,12119,8932,4603,1537,3029,Tag0,unknown
1545003964264,0,-610,-1.34033203125E-4,17,50,58,98078,16758354,8467,12119,8932,4603,1537,3029,Tag0,unknown
1545003964273,0,-610,-1.34033203125E-4,17,50,58,98078,16758354,8467,12119,8932,4603,1537,3029,Tag0,unknown
1545003964274,0,-620,-1.3623046875E-4,17,50,58,98078,16758354,8467,12119,8932,4603,1537,3029,Tag0,unknown
1545003964274,0,-613,-1.3469238281250002E-4,17,50,58,98078,16758354,8467,12119,8932,4603,1537,3029,Tag0,unknown
1545003964274,0,-589,-1.294189453125E-4,17,50,58,98078,16758354,8467,12119,8932,4603,1537,3029,Tag0,unknown
1545003964274,0,-585,-1.285400390625E-4,17,50,58,98078,16758354,8467,12119,8932,4603,1537,3029,Tag0,unknown
1545003964280,0,-602,-1.3227539062500001E-4,17,50,58,98078,16758354,8467,12119,8932,4603,1537,3029,Tag0,unknown
1545003964291,0,-614,-1.34912109375E-4,17,50,58,98078,16758354,8467,12119,8932,4603,1537,3029,Tag0,unknown
1545003964291,0,-601,-1.3205566406249998E-4,17,50,58,98078,16758354,8467,12119,8932,4603,1537,3029,Tag0,unknown
1545003964291,0,-584,-1.2832031250000002E-4,17,50,58,98078,16758354,8467,12119,8932,4603,1537,3029,Tag0,unknown
1545003964291,0,-581,-1.276611328125E-4,17,50,58,98078,16758354,8467,12119,8932,4603,1537,3029,Tag0,unknown
1545003964296,0,-583,-1.281005859375E-4,17,50,58,98078,16758354,8467,12119,8932,4603,1537,3029,Tag0,unknown
1545003964296,0,-581,-1.276611328125E-4,17,50,58,98078,16758354,8467,12119,8932,4603,1537,3029,Tag0,unknown
1545003964296,0,-581,-1.276611328125E-4,17,50,58,98078,16758354,8467,12119,8932,4603,1537,3029,Tag0,unknown
1545003964296,0,-583,-1.281005859375E-4,17,50,58,98078,16758354,8467,12119,8932,4603,1537,3029,Tag0,unknown
1545003964297,0,-579,-1.272216796875E-4,17,50,58,98078,16758354,8467,12119,8932,4603,1537,3029,Tag0,unknown
1545003964297,0,-573,-1.259033203125E-4,17,50,58,98078,16758354,8467,12119,8932,4603,1537,3029,Tag0,unknown
1545003964297,0,-570,-1.25244140625E-4,17,50,58,98078,16758354,8467,12119,8932,4603,1537,3029,Tag0,unknown
1545003964298,0,-553,-1.215087890625E-4,17,50,58,98078,16758354,8467,12119,8932,4603,1537,3029,Tag0,unknown
1545003964298,0,-533,-1.171142578125E-4,17,50,58,98078,16758354,8467,12119,8932,4603,1537,3029,Tag0,unknown
1545003964298,0,-529,-1.162353515625E-4,17,50,58,98078,16758354,8467,12119,8932,4603,1537,3029,Tag0,unknown
1545003964310,0,-529,-1.162353515625E-4,17,50,58,98078,16758354,8467,12119,8932,4603,1537,3029,Tag0,unknown
1545003964310,0,-254,-5.5810546875E-5,17,50,58,98078,16758354,8467,12119,8932,4603,1537,3029,Tag0,unknown
1545003964310,0,-219,-4.81201171875E-5,17,50,58,98078,16758354,8467,12119,8932,4603,1537,3029,Tag0,unknown
1545003964311,0,-196,-4.306640625E-5,17,50,58,98078,16758354,8467,12119,8932,4603,1537,3029,Tag0,unknown
1545003964311,0,-194,-4.2626953125E-5,17,50,58,98078,16758354,8467,12119,8932,4603,1537,3029,Tag0,unknown
1545003964311,0,-205,-4.50439453125E-5,17,50,58,98078,16758354,8467,12119,8932,4603,1537,3029,Tag0,unknown
1545003964312,0,-218,-4.7900390625E-5,17,50,58,98078,16758354,8467,12119,8932,4603,1537,3029,Tag0,unknown
1545003964312,0,-225,-4.94384765625E-5,17,50,58,98078,16758354,8467,12119,8932,4603,1537,3029,Tag0,unknown
1545003964312,0,-225,-4.94384765625E-5,17,50,58,98078,16758354,8467,12119,8932,4603,1537,3029,Tag0,unknown
1545003964324,0,-222,-4.8779296875E-5,17,50,58,98078,16758354,8467,12119,8932,4603,1537,3029,Tag0,unknown
1545003964324,0,-231,-5.07568359375E-5,17,50,58,98078,16758354,8467,12119,8932,4603,1537,3029,Tag0,unknown
1545003964324,0,-237,-5.2075195312500004E-5,17,50,58,98078,16758354,8467,12119,8932,4603,1537,3029,Tag0,unknown
1545003964324,0,-229,-5.03173828125E-5,17,50,58,98078,16758354,8467,12119,8932,4603,1537,3029,Tag0,unknown
1545003964324,0,-190,-4.1748046875E-5,17,50,58,98078,16758354,8467,12119,8932,4603,1537,3029,Tag0,unknown
1545003964325,0,-167,-3.6694335937500004E-5,17,50,58,98078,16758354,8467,12119,8932,4603,1537,3029,Tag0,unknown
1545003964325,0,-166,-3.6474609375E-5,17,50,58,98078,16758354,8467,12119,8932,4603,1537,3029,Tag0,unknown
1545003964325,0,-161,-3.53759765625E-5,17,50,58,98078,16758354,8467,12119,8932,4603,1537,3029,Tag0,unknown
1545003964325,0,-138,-3.0322265625E-5,17,50,58,98078,16758354,8467,12119,8932,4603,1537,3029,Tag0,unknown
1545003964327,0,-380,-8.349609375E-5,17,50,58,98078,16758354,8467,12119,8932,4603,1537,3029,Tag0,unknown
1545003964327,0,-376,-8.261718750000001E-5,17,50,58,98078,16758354,8467,12119,8932,4603,1537,3029,Tag0,unknown
1545003964328,0,-377,-8.28369140625E-5,17,50,58,98078,16758354,8467,12119,8932,4603,1537,3029,Tag0,unknown
1545003964328,0,-374,-8.2177734375E-5,17,50,58,98078,16758354,8467,12119,8932,4603,1537,3029,Tag0,unknown
1545003964340,0,-363,-7.97607421875E-5,17,50,58,98078,16758354,8467,12119,8932,4603,1537,3029,Tag0,unknown
1545003964340,0,-364,-7.998046875E-5,17,50,58,98078,16758354,8467,12119,8932,4603,1537,3029,Tag0,unknown
1545003964340,0,-365,-8.02001953125E-5,17,50,58,98078,16758354,8467,12119,8932,4603,1537,3029,Tag0,unknown
1545003964341,0,-357,-7.844238281250001E-5,17,50,58,98078,16758354,8467,12119,8932,4603,1537,3029,Tag0,unknown
1545003964341,0,-342,-7.5146484375E-5,17,50,58,98078,16758354,8467,12119,8932,4603,1537,3029,Tag0,unknown
1545003964341,0,-334,-7.338867187500001E-5,17,50,58,98078,16758354,8467,12119,8932,4603,1537,3029,Tag0,unknown
1545003964359,0,-338,-7.426757812499999E-5,17,50,58,98078,16758354,8467,12119,8932,4603,1537,3029,Tag0,unknown
1545003964359,0,-328,-7.207031249999999E-5,17,50,58,98078,16758354,8467,12119,8932,4603,1537,3029,Tag0,unknown
1545003964359,0,-316,-6.943359375000001E-5,17,50,58,98078,16758354,8467,12119,8932,4603,1537,3029,Tag0,unknown
1545003964359,0,-315,-6.92138671875E-5,17,50,58,98078,16758354,8467,12119,8932,4603,1537,3029,Tag0,unknown
1545003964360,0,-309,-6.78955078125E-5,17,50,58,98078,16758354,8467,12119,8932,4603,1537,3029,Tag0,unknown
1545003964360,0,-296,-6.50390625E-5,17,50,58,98078,16758354,8467,12119,8932,4603,1537,3029,Tag0,unknown
1545003964360,0,-289,-6.35009765625E-5,17,50,58,98078,16758354,8467,12119,8932,4603,1537,3029,Tag0,unknown
1545003964360,0,-278,-6.108398437500001E-5,17,50,58,98078,16758354,8467,12119,8932,4603,1537,3029,Tag0,unknown
1545003964361,0,-261,-5.73486328125E-5,17,50,58,98078,16758354,8467,12119,8932,4603,1537,3029,Tag0,unknown
1545003964361,0,-257,-5.64697265625E-5,17,50,58,98078,16758354,8467,12119,8932,4603,1537,3029,Tag0,unknown
1545003964361,0,-266,-5.8447265625E-5,17,50,58,98078,16758354,8467,12119,8932,4603,1537,3029,Tag0,unknown
1545003964361,0,-273,-5.998535156250001E-5,17,50,58,98078,16758354,8467,12119,8932,4603,1537,3029,Tag0,unknown
1545003964373,0,-267,-5.86669921875E-5,17,50,58,98078,16758354,8467,12119,8932,4603,1537,3029,Tag0,unknown
1545003964374,0,-264,-5.80078125E-5,17,50,58,98078,16758354,8467,12119,8932,4603,1537,3029,Tag0,unknown
1545003964374,0,-278,-6.108398437500001E-5,17,50,58,98078,16758354,8467,12119,8932,4603,1537,3029,Tag0,unknown
1545003964374,0,-275,-6.04248046875E-5,17,50,58,98078,16758354,8467,12119,8932,4603,1537,3029,Tag0,unknown
1545003964374,0,6,1.318359375E-6,17,50,58,98078,16758354,8467,12119,8932,4603,1537,3029,Tag0,unknown
1545003964374,0,35,7.6904296875E-6,17,50,58,98078,16758354,8467,12119,8932,4603,1537,3029,Tag0,unknown
1545003964375,0,49,1.07666015625E-5,17,50,58,98078,16758354,8467,12119,8932,4603,1537,3029,Tag0,unknown
1545003964375,0,37,8.1298828125E-6,17,50,58,98078,16758354,8467,12119,8932,4603,1537,3029,Tag0,unknown
1545003964390,0,32,7.03125E-6,17,50,58,98078,16758354,8467,12119,8932,4603,1537,3029,Tag0,unknown
1545003964391,0,32,7.03125E-6,17,50,58,98078,16758354,8467,12119,8932,4603,1537,3029,Tag0,unknown
1545003964391,0,44,9.66796875E-6,17,50,58,98078,16758354,8467,12119,8932,4603,1537,3029,Tag0,unknown
1545003964391,0,60,1.318359375E-5,17,50,58,98078,16758354,8467,12119,8932,4603,1537,3029,Tag0,unknown
1545003964392,0,60,1.318359375E-5,17,50,58,98078,16758354,8467,12119,8932,4603,1537,3029,Tag0,unknown
1545003964392,0,58,1.2744140625E-5,17,50,58,98078,16758354,8467,12119,8932,4603,1537,3029,Tag0,unknown
1545003964392,0,66,1.4501953125E-5,17,50,58,98078,16758354,8467,12119,8932,4603,1537,3029,Tag0,unknown
1545003964406,0,71,1.56005859375E-5,17,50,58,98078,16758354,8467,12119,8932,4603,1537,3029,Tag0,unknown
1545003964406,0,68,1.4941406250000001E-5,17,50,58,98078,16758354,8467,12119,8932,4603,1537,3029,Tag0,unknown
1545003964407,0,67,1.4721679687500002E-5,17,50,58,98078,16758354,8467,12119,8932,4603,1537,3029,Tag0,unknown
1545003964407,0,67,1.4721679687500002E-5,17,50,58,98078,16758354,8467,12119,8932,4603,1537,3029,Tag0,unknown
1545003964407,0,56,1.23046875E-5,17,50,58,98078,16758354,8467,12119,8932,4603,1537,3029,Tag0,unknown
1545003964407,0,54,1.1865234375000001E-5,17,50,58,98078,16758354,8467,12119,8932,4603,1537,3029,Tag0,unknown
1545003964407,0,61,1.34033203125E-5,17,50,58,98078,16758354,8467,12119,8932,4603,1537,3029,Tag0,unknown
1545003964408,0,68,1.4941406250000001E-5,17,50,58,98078,16758354,8467,12119,8932,4603,1537,3029,Tag0,unknown
1545003964408,0,56,1.23046875E-5,17,50,58,98078,16758354,8467,12119,8932,4603,1537,3029,Tag0,unknown
1545003964423,0,61,1.34033203125E-5,17,50,58,98078,16758354,8467,12119,8932,4603,1537,3029,Tag0,unknown
1545003964424,0,72,1.58203125E-5,17,50,58,98078,16758354,8467,12119,8932,4603,1537,3029,Tag0,unknown
1545003964424,0,69,1.51611328125E-5,17,50,58,98078,16758354,8467,12119,8932,4603,1537,3029,Tag0,unknown
1545003964424,0,65,1.42822265625E-5,17,50,58,98078,16758354,8467,12119,8932,4603,1537,3029,Tag0,unknown
1545003964424,0,67,1.4721679687500002E-5,17,50,58,98078,16758354,8467,12119,8932,4603,1537,3029,Tag0,unknown
1545003964424,0,76,1.669921875E-5,17,50,58,98078,16758354,8467,12119,8932,4603,1537,3029,Tag0,unknown
1545003964425,0,83,1.82373046875E-5,17,50,58,98078,16758354,8467,12119,8932,4603,1537,3029,Tag0,unknown
1545003964425,0,74,1.6259765625E-5,17,50,58,98078,16758354,8467,12119,8932,4603,1537,3029,Tag0,unknown
1545003964440,0,70,1.5380859375E-5,17,50,58,98078,16758354,8467,12119,8932,4603,1537,3029,Tag0,unknown
1545003964440,0,68,1.4941406250000001E-5,17,50,58,98078,16758354,8467,12119,8932,4603,1537,3029,Tag0,unknown
1545003964468,0,68,1.4941406250000001E-5,13,41,58,76381,161096,8978,3187,4099,5053,1894,210,Tag0,unknown
1545003964468,0,83,1.82373046875E-5,13,41,58,76381,161096,8978,3187,4099,5053,1894,210,Tag0,unknown
1545003964468,0,102,2.2412109374999998E-5,13,41,58,76381,161096,8978,3187,4099,5053,1894,210,Tag0,unknown
1545003964474,0,102,2.2412109374999998E-5,13,41,58,76381,161096,8978,3187,4099,5053,1894,210,Tag0,unknown
1545003964475,0,81,1.77978515625E-5,13,41,58,76381,161096,8978,3187,4099,5053,1894,210,Tag0,unknown
1545003964475,0,55,1.20849609375E-5,13,41,58,76381,161096,8978,3187,4099,5053,1894,210,Tag0,unknown
1545003964475,0,53,1.1645507812500002E-5,13,41,58,76381,161096,8978,3187,4099,5053,1894,210,Tag0,unknown
1545003964475,0,70,1.5380859375E-5,13,41,58,76381,161096,8978,3187,4099,5053,1894,210,Tag0,unknown
1545003964475,0,86,1.8896484375000003E-5,13,41,58,76381,161096,8978,3187,4099,5053,1894,210,Tag0,unknown
1545003964476,0,96,2.109375E-5,13,41,58,76381,161096,8978,3187,4099,5053,1894,210,Tag0,unknown
1545003964476,0,74,1.6259765625E-5,13,41,58,76381,161096,8978,3187,4099,5053,1894,210,Tag0,unknown
1545003964476,0,49,1.07666015625E-5,13,41,58,76381,161096,8978,3187,4099,5053,1894,210,Tag0,unknown
1545003964476,0,42,9.228515625000002E-6,13,41,58,76381,161096,8978,3187,4099,5053,1894,210,Tag0,unknown
1545003964476,0,51,1.1206054687499999E-5,13,41,58,76381,161096,8978,3187,4099,5053,1894,210,Tag0,unknown
1545003964476,0,49,1.07666015625E-5,13,41,58,76381,161096,8978,3187,4099,5053,1894,210,Tag0,unknown
1545003964477,0,35,7.6904296875E-6,13,41,58,76381,161096,8978,3187,4099,5053,1894,210,Tag0,unknown
1545003964477,0,11,2.4169921875E-6,13,41,58,76381,161096,8978,3187,4099,5053,1894,210,Tag0,unknown
1545003964477,0,-273,-5.998535156250001E-5,13,41,58,76381,161096,8978,3187,4099,5053,1894,210,Tag0,unknown
1545003964477,0,-273,-5.998535156250001E-5,13,41,58,76381,161096,8978,3187,4099,5053,1894,210,Tag0,unknown
1545003964477,0,0,0.0,13,41,58,76381,161096,8978,3187,4099,5053,1894,210,Tag0,unknown
1545003964478,0,10,2.197265625E-6,13,41,58,76381,161096,8978,3187,4099,5053,1894,210,Tag0,unknown
1545003964478,0,20,4.39453125E-6,13,41,58,76381,161096,8978,3187,4099,5053,1894,210,Tag0,unknown
1545003964478,0,24,5.2734375E-6,13,41,58,76381,161096,8978,3187,4099,5053,1894,210,Tag0,unknown
1545003964478,0,24,5.2734375E-6,13,41,58,76381,161096,8978,3187,4099,5053,1894,210,Tag0,unknown
1545003964489,0,37,8.1298828125E-6,13,41,58,76381,161096,8978,3187,4099,5053,1894,210,Tag0,unknown
1545003964491,0,50,1.0986328125E-5,13,41,58,76381,161096,8978,3187,4099,5053,1894,210,Tag0,unknown
1545003964491,0,53,1.1645507812500002E-5,13,41,58,76381,161096,8978,3187,4099,5053,1894,210,Tag0,unknown
1545003964491,0,45,9.8876953125E-6,13,41,58,76381,161096,8978,3187,4099,5053,1894,210,Tag0,unknown
1545003964491,0,42,9.228515625000002E-6,13,41,58,76381,161096,8978,3187,4099,5053,1894,210,Tag0,unknown
1545003964492,0,53,1.1645507812500002E-5,13,41,58,76381,161096,8978,3187,4099,5053,1894,210,Tag0,unknown
1545003964492,0,72,1.58203125E-5,13,41,58,76381,161096,8978,3187,4099,5053,1894,210,Tag0,unknown
1545003964492,0,90,1.9775390625E-5,13,41,58,76381,161096,8978,3187,4099,5053,1894,210,Tag0,unknown
1545003964506,0,104,2.28515625E-5,13,41,58,76381,161096,8978,3187,4099,5053,1894,210,Tag0,unknown
1545003964506,0,105,2.30712890625E-5,13,41,58,76381,161096,8978,3187,4099,5053,1894,210,Tag0,unknown
1545003964506,0,99,2.1752929687500003E-5,13,41,58,76381,161096,8978,3187,4099,5053,1894,210,Tag0,unknown
1545003964507,0,103,2.26318359375E-5,13,41,58,76381,161096,8978,3187,4099,5053,1894,210,Tag0,unknown
1545003964507,0,105,2.30712890625E-5,13,41,58,76381,161096,8978,3187,4099,5053,1894,210,Tag0,unknown
1545003964507,0,88,1.93359375E-5,13,41,58,76381,161096,8978,3187,4099,5053,1894,210,Tag0,unknown
1545003964507,0,83,1.82373046875E-5,13,41,58,76381,161096,8978,3187,4099,5053,1894,210,Tag0,unknown
1545003964508,0,97,2.13134765625E-5,13,41,58,76381,161096,8978,3187,4099,5053,1894,210,Tag0,unknown
1545003964508,0,105,2.30712890625E-5,13,41,58,76381,161096,8978,3187,4099,5053,1894,210,Tag0,unknown
1545003964524,0,105,2.30712890625E-5,13,41,58,76381,161096,8978,3187,4099,5053,1894,210,Tag0,unknown
1545003964524,0,108,2.3730468750000002E-5,13,41,58,76381,161096,8978,3187,4099,5053,1894,210,Tag0,unknown
1545003964525,0,114,2.5048828125000003E-5,13,41,58,76381,161096,8978,3187,4099,5053,1894,210,Tag0,unknown
1545003964525,0,117,2.5708007812499998E-5,13,41,58,76381,161096,8978,3187,4099,5053,1894,210,Tag0,unknown
1545003964525,0,121,2.6586914062500003E-5,13,41,58,76381,161096,8978,3187,4099,5053,1894,210,Tag0,unknown
1545003964526,0,119,2.6147460937500004E-5,13,41,58,76381,161096,8978,3187,4099,5053,1894,210,Tag0,unknown
1545003964526,0,106,2.3291015625000003E-5,13,41,58,76381,161096,8978,3187,4099,5053,1894,210,Tag0,unknown
1545003964526,0,101,2.2192382812500002E-5,13,41,58,76381,161096,8978,3187,4099,5053,1894,210,Tag0,unknown
1545003964526,0,107,2.35107421875E-5,13,41,58,76381,161096,8978,3187,4099,5053,1894,210,Tag0,unknown
1545003964539,0,121,2.6586914062500003E-5,13,41,58,76381,161096,8978,3187,4099,5053,1894,210,Tag0,unknown
1545003964540,0,-126,-2.7685546875E-5,13,41,58,76381,161096,8978,3187,4099,5053,1894,210,Tag0,unknown
1545003964540,0,-127,-2.79052734375E-5,13,41,58,76381,161096,8978,3187,4099,5053,1894,210,Tag0,unknown
1545003964540,0,123,2.70263671875E-5,13,41,58,76381,161096,8978,3187,4099,5053,1894,210,Tag0,unknown
1545003964541,0,-124,-2.724609375E-5,13,41,58,76381,161096,8978,3187,4099,5053,1894,210,Tag0,unknown
1545003964541,0,-122,-2.6806640625E-5,13,41,58,76381,161096,8978,3187,4099,5053,1894,210,Tag0,unknown
1545003964555,0,123,2.70263671875E-5,13,41,58,76381,161096,8978,3187,4099,5053,1894,210,Tag0,unknown
1545003964556,0,114,2.5048828125000003E-5,13,41,58,76381,161096,8978,3187,4099,5053,1894,210,Tag0,unknown
1545003964556,0,99,2.1752929687500003E-5,13,41,58,76381,161096,8978,3187,4099,5053,1894,210,Tag0,unknown
1545003964556,0,90,1.9775390625E-5,13,41,58,76381,161096,8978,3187,4099,5053,1894,210,Tag0,unknown
1545003964556,0,80,1.7578125E-5,13,41,58,76381,161096,8978,3187,4099,5053,1894,210,Tag0,unknown
1545003964556,0,75,1.64794921875E-5,13,41,58,76381,161096,8978,3187,4099,5053,1894,210,Tag0,unknown
1545003964556,0,76,1.669921875E-5,13,41,58,76381,161096,8978,3187,4099,5053,1894,210,Tag0,unknown
1545003964556,0,75,1.64794921875E-5,13,41,58,76381,161096,8978,3187,4099,5053,1894,210,Tag0,unknown
1545003964557,0,72,1.58203125E-5,13,41,58,76381,161096,8978,3187,4099,5053,1894,210,Tag0,unknown
1545003964557,0,75,1.64794921875E-5,13,41,58,76381,161096,8978,3187,4099,5053,1894,210,Tag0,unknown
1545003964557,0,80,1.7578125E-5,13,41,58,76381,161096,8978,3187,4099,5053,1894,210,Tag0,unknown
1545003964575,0,81,1.77978515625E-5,13,41,58,76381,161096,8978,3187,4099,5053,1894,210,Tag0,unknown
1545003964575,0,90,1.9775390625E-5,13,41,58,76381,161096,8978,3187,4099,5053,1894,210,Tag0,unknown
1545003964576,0,106,2.3291015625000003E-5,13,41,58,76381,161096,8978,3187,4099,5053,1894,210,Tag0,unknown
1545003964576,0,113,2.48291015625E-5,13,41,58,76381,161096,8978,3187,4099,5053,1894,210,Tag0,unknown
1545003964576,0,113,2.48291015625E-5,13,41,58,76381,161096,8978,3187,4099,5053,1894,210,Tag0,unknown
1545003964576,0,107,2.35107421875E-5,13,41,58,76381,161096,8978,3187,4099,5053,1894,210,Tag0,unknown
1545003964576,0,103,2.26318359375E-5,13,41,58,76381,161096,8978,3187,4099,5053,1894,210,Tag0,unknown
1545003964576,0,102,2.2412109374999998E-5,13,41,58,76381,161096,8978,3187,4099,5053,1894,210,Tag0,unknown
1545003964577,0,102,2.2412109374999998E-5,13,41,58,76381,161096,8978,3187,4099,5053,1894,210,Tag0,unknown
1545003964591,0,103,2.26318359375E-5,13,41,58,76381,161096,8978,3187,4099,5053,1894,210,Tag0,unknown
1545003964591,0,109,2.39501953125E-5,13,41,58,76381,161096,8978,3187,4099,5053,1894,210,Tag0,unknown
1545003964591,0,113,2.48291015625E-5,13,41,58,76381,161096,8978,3187,4099,5053,1894,210,Tag0,unknown
1545003964591,0,104,2.28515625E-5,13,41,58,76381,161096,8978,3187,4099,5053,1894,210,Tag0,unknown
1545003964592,0,87,1.91162109375E-5,13,41,58,76381,161096,8978,3187,4099,5053,1894,210,Tag0,unknown
1545003964592,0,72,1.58203125E-5,13,41,58,76381,161096,8978,3187,4099,5053,1894,210,Tag0,unknown
1545003964592,0,83,1.82373046875E-5,13,41,58,76381,161096,8978,3187,4099,5053,1894,210,Tag0,unknown
1545003964592,0,100,2.197265625E-5,13,41,58,76381,161096,8978,3187,4099,5053,1894,210,Tag0,unknown
1545003964606,0,99,2.1752929687500003E-5,13,41,58,76381,161096,8978,3187,4099,5053,1894,210,Tag0,unknown
1545003964606,0,85,1.86767578125E-5,13,41,58,76381,161096,8978,3187,4099,5053,1894,210,Tag0,unknown
1545003964606,0,71,1.56005859375E-5,13,41,58,76381,161096,8978,3187,4099,5053,1894,210,Tag0,unknown
1545003964607,0,57,1.2524414062500001E-5,13,41,58,76381,161096,8978,3187,4099,5053,1894,210,Tag0,unknown
1545003964607,0,77,1.69189453125E-5,13,41,58,76381,161096,8978,3187,4099,5053,1894,210,Tag0,unknown
1545003964607,0,105,2.30712890625E-5,13,41,58,76381,161096,8978,3187,4099,5053,1894,210,Tag0,unknown
1545003964607,0,115,2.52685546875E-5,13,41,58,76381,161096,8978,3187,4099,5053,1894,210,Tag0,unknown
1545003964608,0,107,2.35107421875E-5,13,41,58,76381,161096,8978,3187,4099,5053,1894,210,Tag0,unknown
1545003964608,0,100,2.197265625E-5,13,41,58,76381,161096,8978,3187,4099,5053,1894,210,Tag0,unknown
1545003964623,0,105,2.30712890625E-5,13,41,58,76381,161096,8978,3187,4099,5053,1894,210,Tag0,unknown
1545003964624,0,122,2.6806640625E-5,13,41,58,76381,161096,8978,3187,4099,5053,1894,210,Tag0,unknown
1545003964624,0,117,2.5708007812499998E-5,13,41,58,76381,161096,8978,3187,4099,5053,1894,210,Tag0,unknown
1545003964625,0,97,2.13134765625E-5,13,41,58,76381,161096,8978,3187,4099,5053,1894,210,Tag0,unknown
1545003964625,0,80,1.7578125E-5,13,41,58,76381,161096,8978,3187,4099,5053,1894,210,Tag0,unknown
1545003964625,0,72,1.58203125E-5,13,41,58,76381,161096,8978,3187,4099,5053,1894,210,Tag0,unknown
1545003964625,0,59,1.29638671875E-5,13,41,58,76381,161096,8978,3187,4099,5053,1894,210,Tag0,unknown
1545003964625,0,55,1.20849609375E-5,13,41,58,76381,161096,8978,3187,4099,5053,1894,210,Tag0,unknown
1545003964639,0,71,1.56005859375E-5,13,41,58,76381,161096,8978,3187,4099,5053,1894,210,Tag0,unknown
1545003964639,0,86,1.8896484375000003E-5,13,41,58,76381,161096,8978,3187,4099,5053,1894,210,Tag0,unknown
1545003964640,0,91,1.99951171875E-5,13,41,58,76381,161096,8978,3187,4099,5053,1894,210,Tag0,unknown
1545003964641,0,89,1.95556640625E-5,13,41,58,76381,161096,8978,3187,4099,5053,1894,210,Tag0,unknown
1545003964641,0,89,1.95556640625E-5,13,41,58,76381,161096,8978,3187,4099,5053,1894,210,Tag0,unknown
1545003964641,0,98,2.1533203125E-5,13,41,58,76381,161096,8978,3187,4099,5053,1894,210,Tag0,unknown
1545003964641,0,91,1.99951171875E-5,13,41,58,76381,161096,8978,3187,4099,5053,1894,210,Tag0,unknown
1545003964641,0,92,2.021484375E-5,13,41,58,76381,161096,8978,3187,4099,5053,1894,210,Tag0,unknown
1545003964656,0,107,2.35107421875E-5,13,41,58,76381,161096,8978,3187,4099,5053,1894,210,Tag0,unknown
1545003964656,0,103,2.26318359375E-5,13,41,58,76381,161096,8978,3187,4099,5053,1894,210,Tag0,unknown
1545003964657,0,93,2.04345703125E-5,13,41,58,76381,161096,8978,3187,4099,5053,1894,210,Tag0,unknown
1545003964657,0,97,2.13134765625E-5,13,41,58,76381,161096,8978,3187,4099,5053,1894,210,Tag0,unknown
1545003964657,0,99,2.1752929687500003E-5,13,41,58,76381,161096,8978,3187,4099,5053,1894,210,Tag0,unknown
1545003964658,0,99,2.1752929687500003E-5,13,41,58,76381,161096,8978,3187,4099,5053,1894,210,Tag0,unknown
1545003964658,0,103,2.26318359375E-5,13,41,58,76381,161096,8978,3187,4099,5053,1894,210,Tag0,unknown
1545003964658,0,108,2.3730468750000002E-5,13,41,58,76381,161096,8978,3187,4099,5053,1894,210,Tag0,unknown
1545003964658,0,109,2.39501953125E-5,13,41,58,76381,161096,8978,3187,4099,5053,1894,210,Tag0,unknown
1545003964672,0,114,2.5048828125000003E-5,13,41,58,76381,161096,8978,3187,4099,5053,1894,210,Tag0,unknown
1545003964673,0,115,2.52685546875E-5,13,41,58,76381,161096,8978,3187,4099,5053,1894,210,Tag0,unknown
1545003964673,0,118,2.5927734375E-5,13,41,58,76381,161096,8978,3187,4099,5053,1894,210,Tag0,unknown
1545003964673,0,123,2.70263671875E-5,13,41,58,76381,161096,8978,3187,4099,5053,1894,210,Tag0,unknown
1545003964674,0,120,2.63671875E-5,13,41,58,76381,161096,8978,3187,4099,5053,1894,210,Tag0,unknown
1545003964674,0,113,2.48291015625E-5,13,41,58,76381,161096,8978,3187,4099,5053,1894,210,Tag0,unknown
1545003964675,0,115,2.52685546875E-5,13,41,58,76381,161096,8978,3187,4099,5053,1894,210,Tag0,unknown
1545003964675,0,114,2.5048828125000003E-5,13,41,58,76381,161096,8978,3187,4099,5053,1894,210,Tag0,unknown
1545003964689,0,109,2.39501953125E-5,13,41,58,76381,161096,8978,3187,4099,5053,1894,210,Tag0,unknown
1545003964689,0,98,2.1533203125E-5,13,41,58,76381,161096,8978,3187,4099,5053,1894,210,Tag0,unknown
1545003964689,0,101,2.2192382812500002E-5,13,41,58,76381,161096,8978,3187,4099,5053,1894,210,Tag0,unknown
1545003964690,0,105,2.30712890625E-5,13,41,58,76381,161096,8978,3187,4099,5053,1894,210,Tag0,unknown
1545003964691,0,98,2.1533203125E-5,13,41,58,76381,161096,8978,3187,4099,5053,1894,210,Tag0,unknown
1545003964691,0,91,1.99951171875E-5,13,41,58,76381,161096,8978,3187,4099,5053,1894,210,Tag0,unknown
1545003964691,0,76,1.669921875E-5,13,41,58,76381,161096,8978,3187,4099,5053,1894,210,Tag0,unknown
1545003964691,0,64,1.40625E-5,13,41,58,76381,161096,8978,3187,4099,5053,1894,210,Tag0,unknown
1545003964691,0,71,1.56005859375E-5,13,41,58,76381,161096,8978,3187,4099,5053,1894,210,Tag0,unknown
1545003964706,0,87,1.91162109375E-5,13,41,58,76381,161096,8978,3187,4099,5053,1894,210,Tag0,unknown
1545003964707,0,93,2.04345703125E-5,13,41,58,76381,161096,8978,3187,4099,5053,1894,210,Tag0,unknown
1545003964707,0,91,1.99951171875E-5,13,41,58,76381,161096,8978,3187,4099,5053,1894,210,Tag0,unknown
1545003964707,0,83,1.82373046875E-5,13,41,58,76381,161096,8978,3187,4099,5053,1894,210,Tag0,unknown
1545003964708,0,69,1.51611328125E-5,13,41,58,76381,161096,8978,3187,4099,5053,1894,210,Tag0,unknown
1545003964708,0,68,1.4941406250000001E-5,13,41,58,76381,161096,8978,3187,4099,5053,1894,210,Tag0,unknown
1545003964708,0,60,1.318359375E-5,13,41,58,76381,161096,8978,3187,4099,5053,1894,210,Tag0,unknown
1545003964708,0,48,1.0546875E-5,13,41,58,76381,161096,8978,3187,4099,5053,1894,210,Tag0,unknown
1545003964722,0,42,9.228515625000002E-6,13,41,58,76381,161096,8978,3187,4099,5053,1894,210,Tag0,unknown
1545003964723,0,59,1.29638671875E-5,13,41,58,76381,161096,8978,3187,4099,5053,1894,210,Tag0,unknown
1545003964723,0,83,1.82373046875E-5,13,41,58,76381,161096,8978,3187,4099,5053,1894,210,Tag0,unknown
1545003964723,0,88,1.93359375E-5,13,41,58,76381,161096,8978,3187,4099,5053,1894,210,Tag0,unknown
1545003964724,0,71,1.56005859375E-5,13,41,58,76381,161096,8978,3187,4099,5053,1894,210,Tag0,unknown
1545003964727,0,51,1.1206054687499999E-5,13,41,58,76381,161096,8978,3187,4099,5053,1894,210,Tag0,unknown
1545003964727,0,40,8.7890625E-6,13,41,58,76381,161096,8978,3187,4099,5053,1894,210,Tag0,unknown
1545003964727,0,49,1.07666015625E-5,13,41,58,76381,161096,8978,3187,4099,5053,1894,210,Tag0,unknown
1545003964727,0,71,1.56005859375E-5,13,41,58,76381,161096,8978,3187,4099,5053,1894,210,Tag0,unknown
1545003964740,0,83,1.82373046875E-5,13,41,58,76381,161096,8978,3187,4099,5053,1894,210,Tag0,unknown
1545003964740,0,66,1.4501953125E-5,13,41,58,76381,161096,8978,3187,4099,5053,1894,210,Tag0,unknown
1545003964740,0,41,9.008789062499999E-6,13,41,58,76381,161096,8978,3187,4099,5053,1894,210,Tag0,unknown
1545003964740,0,42,9.228515625000002E-6,13,41,58,76381,161096,8978,3187,4099,5053,1894,210,Tag0,unknown
1545003964741,0,61,1.34033203125E-5,13,41,58,76381,161096,8978,3187,4099,5053,1894,210,Tag0,unknown
1545003964741,0,76,1.669921875E-5,13,41,58,76381,161096,8978,3187,4099,5053,1894,210,Tag0,unknown
1545003964741,0,89,1.95556640625E-5,13,41,58,76381,161096,8978,3187,4099,5053,1894,210,Tag0,unknown
1545003964757,0,101,2.2192382812500002E-5,13,41,58,76381,161096,8978,3187,4099,5053,1894,210,Tag0,unknown
1545003964758,0,109,2.39501953125E-5,13,41,58,76381,161096,8978,3187,4099,5053,1894,210,Tag0,unknown
1545003964759,0,112,2.4609375E-5,13,41,58,76381,161096,8978,3187,4099,5053,1894,210,Tag0,unknown
1545003964761,0,109,2.39501953125E-5,13,41,58,76381,161096,8978,3187,4099,5053,1894,210,Tag0,unknown
1545003964763,0,97,2.13134765625E-5,13,41,58,76381,161096,8978,3187,4099,5053,1894,210,Tag0,unknown
1545003964763,0,70,1.5380859375E-5,13,41,58,76381,161096,8978,3187,4099,5053,1894,210,Tag0,unknown
1545003964764,0,54,1.1865234375000001E-5,13,41,58,76381,161096,8978,3187,4099,5053,1894,210,Tag0,unknown
1545003964765,0,57,1.2524414062500001E-5,13,41,58,76381,161096,8978,3187,4099,5053,1894,210,Tag0,unknown
1545003964765,0,64,1.40625E-5,13,41,58,76381,161096,8978,3187,4099,5053,1894,210,Tag0,unknown
1545003964765,0,52,1.142578125E-5,13,41,58,76381,161096,8978,3187,4099,5053,1894,210,Tag0,unknown
1545003964765,0,35,7.6904296875E-6,13,41,58,76381,161096,8978,3187,4099,5053,1894,210,Tag0,unknown
1545003964772,0,20,4.39453125E-6,13,41,58,76381,161096,8978,3187,4099,5053,1894,210,Tag0,unknown
1545003964772,0,23,5.0537109375E-6,13,41,58,76381,161096,8978,3187,4099,5053,1894,210,Tag0,unknown
1545003964773,0,33,7.2509765625E-6,13,41,58,76381,161096,8978,3187,4099,5053,1894,210,Tag0,unknown
1545003964773,0,41,9.008789062499999E-6,13,41,58,76381,161096,8978,3187,4099,5053,1894,210,Tag0,unknown
1545003964773,0,53,1.1645507812500002E-5,13,41,58,76381,161096,8978,3187,4099,5053,1894,210,Tag0,unknown
1545003964774,0,58,1.2744140625E-5,13,41,58,76381,161096,8978,3187,4099,5053,1894,210,Tag0,unknown
1545003964774,0,59,1.29638671875E-5,13,41,58,76381,161096,8978,3187,4099,5053,1894,210,Tag0,unknown
1545003964774,0,56,1.23046875E-5,13,41,58,76381,161096,8978,3187,4099,5053,1894,210,Tag0,unknown
1545003964795,0,52,1.142578125E-5,13,41,58,76381,161096,8978,3187,4099,5053,1894,210,Tag0,unknown
1545003964796,0,42,9.228515625000002E-6,13,41,58,76381,161096,8978,3187,4099,5053,1894,210,Tag0,unknown
1545003964796,0,34,7.4707031250000005E-6,13,41,58,76381,161096,8978,3187,4099,5053,1894,210,Tag0,unknown
1545003964800,0,29,6.3720703125E-6,13,41,58,76381,161096,8978,3187,4099,5053,1894,210,Tag0,unknown
1545003964800,0,40,8.7890625E-6,13,41,58,76381,161096,8978,3187,4099,5053,1894,210,Tag0,unknown
1545003964801,0,42,9.228515625000002E-6,13,41,58,76381,161096,8978,3187,4099,5053,1894,210,Tag0,unknown
1545003964801,0,37,8.1298828125E-6,13,41,58,76381,161096,8978,3187,4099,5053,1894,210,Tag0,unknown
1545003964801,0,42,9.228515625000002E-6,13,41,58,76381,161096,8978,3187,4099,5053,1894,210,Tag0,unknown
1545003964801,0,52,1.142578125E-5,13,41,58,76381,161096,8978,3187,4099,5053,1894,210,Tag0,unknown
1545003964801,0,71,1.56005859375E-5,13,41,58,76381,161096,8978,3187,4099,5053,1894,210,Tag0,unknown
1545003964802,0,74,1.6259765625E-5,13,41,58,76381,161096,8978,3187,4099,5053,1894,210,Tag0,unknown
1545003964806,0,51,1.1206054687499999E-5,13,41,58,76381,161096,8978,3187,4099,5053,1894,210,Tag0,unknown
1545003964806,0,37,8.1298828125E-6,13,41,58,76381,161096,8978,3187,4099,5053,1894,210,Tag0,unknown
1545003964807,0,37,8.1298828125E-6,13,41,58,76381,161096,8978,3187,4099,5053,1894,210,Tag0,unknown
1545003964807,0,49,1.07666015625E-5,13,41,58,76381,161096,8978,3187,4099,5053,1894,210,Tag0,unknown
1545003964807,0,54,1.1865234375000001E-5,13,41,58,76381,161096,8978,3187,4099,5053,1894,210,Tag0,unknown
1545003964822,0,38,8.349609375E-6,13,41,58,76381,161096,8978,3187,4099,5053,1894,210,Tag0,unknown
1545003964822,0,35,7.6904296875E-6,13,41,58,76381,161096,8978,3187,4099,5053,1894,210,Tag0,unknown
1545003964822,0,27,5.9326171875000005E-6,13,41,58,76381,161096,8978,3187,4099,5053,1894,210,Tag0,unknown
1545003964823,0,20,4.39453125E-6,13,41,58,76381,161096,8978,3187,4099,5053,1894,210,Tag0,unknown
1545003964823,0,16,3.515625E-6,13,41,58,76381,161096,8978,3187,4099,5053,1894,210,Tag0,unknown
1545003964823,0,10,2.197265625E-6,13,41,58,76381,161096,8978,3187,4099,5053,1894,210,Tag0,unknown
1545003964824,0,20,4.39453125E-6,13,41,58,76381,161096,8978,3187,4099,5053,1894,210,Tag0,unknown
1545003964824,0,41,9.008789062499999E-6,13,41,58,76381,161096,8978,3187,4099,5053,1894,210,Tag0,unknown
1545003964829,0,49,1.07666015625E-5,13,41,58,76381,161096,8978,3187,4099,5053,1894,210,Tag0,unknown
1545003964841,0,35,7.6904296875E-6,13,41,58,76381,161096,8978,3187,4099,5053,1894,210,Tag0,unknown
1545003964841,0,23,5.0537109375E-6,13,41,58,76381,161096,8978,3187,4099,5053,1894,210,Tag0,unknown
1545003964841,0,37,8.1298828125E-6,13,41,58,76381,161096,8978,3187,4099,5053,1894,210,Tag0,unknown
1545003964841,0,57,1.2524414062500001E-5,13,41,58,76381,161096,8978,3187,4099,5053,1894,210,Tag0,unknown
1545003964841,0,71,1.56005859375E-5,13,41,58,76381,161096,8978,3187,4099,5053,1894,210,Tag0,unknown
1545003964842,0,68,1.4941406250000001E-5,13,41,58,76381,161096,8978,3187,4099,5053,1894,210,Tag0,unknown
1545003964842,0,53,1.1645507812500002E-5,13,41,58,76381,161096,8978,3187,4099,5053,1894,210,Tag0,unknown
1545003964842,0,51,1.1206054687499999E-5,13,41,58,76381,161096,8978,3187,4099,5053,1894,210,Tag0,unknown
1545003964842,0,57,1.2524414062500001E-5,13,41,58,76381,161096,8978,3187,4099,5053,1894,210,Tag0,unknown
1545003964857,0,70,1.5380859375E-5,13,41,58,76381,161096,8978,3187,4099,5053,1894,210,Tag0,unknown
1545003964858,0,67,1.4721679687500002E-5,13,41,58,76381,161096,8978,3187,4099,5053,1894,210,Tag0,unknown
1545003964858,0,58,1.2744140625E-5,13,41,58,76381,161096,8978,3187,4099,5053,1894,210,Tag0,unknown
1545003964858,0,44,9.66796875E-6,13,41,58,76381,161096,8978,3187,4099,5053,1894,210,Tag0,unknown
1545003964861,0,38,8.349609375E-6,13,41,58,76381,161096,8978,3187,4099,5053,1894,210,Tag0,unknown
1545003964861,0,44,9.66796875E-6,13,41,58,76381,161096,8978,3187,4099,5053,1894,210,Tag0,unknown
1545003964861,0,59,1.29638671875E-5,13,41,58,76381,161096,8978,3187,4099,5053,1894,210,Tag0,unknown
1545003964861,0,66,1.4501953125E-5,13,41,58,76381,161096,8978,3187,4099,5053,1894,210,Tag0,unknown
1545003964862,0,54,1.1865234375000001E-5,13,41,58,76381,161096,8978,3187,4099,5053,1894,210,Tag0,unknown
1545003964875,0,43,9.448242187500001E-6,13,41,58,76381,161096,8978,3187,4099,5053,1894,210,Tag0,unknown
1545003964876,0,42,9.228515625000002E-6,13,41,58,76381,161096,8978,3187,4099,5053,1894,210,Tag0,unknown
1545003964876,0,51,1.1206054687499999E-5,13,41,58,76381,161096,8978,3187,4099,5053,1894,210,Tag0,unknown
1545003964876,0,65,1.42822265625E-5,13,41,58,76381,161096,8978,3187,4099,5053,1894,210,Tag0,unknown
1545003964876,0,61,1.34033203125E-5,13,41,58,76381,161096,8978,3187,4099,5053,1894,210,Tag0,unknown
1545003964877,0,48,1.0546875E-5,13,41,58,76381,161096,8978,3187,4099,5053,1894,210,Tag0,unknown
1545003964877,0,38,8.349609375E-6,13,41,58,76381,161096,8978,3187,4099,5053,1894,210,Tag0,unknown
1545003964877,0,38,8.349609375E-6,13,41,58,76381,161096,8978,3187,4099,5053,1894,210,Tag0,unknown
1545003964877,0,39,8.5693359375E-6,13,41,58,76381,161096,8978,3187,4099,5053,1894,210,Tag0,unknown
1545003964888,0,36,7.91015625E-6,13,41,58,76381,161096,8978,3187,4099,5053,1894,210,Tag0,unknown
1545003964889,0,35,7.6904296875E-6,13,41,58,76381,161096,8978,3187,4099,5053,1894,210,Tag0,unknown
1545003964894,0,35,7.6904296875E-6,13,41,58,76381,161096,8978,3187,4099,5053,1894,210,Tag0,unknown
1545003964894,0,28,6.15234375E-6,13,41,58,76381,161096,8978,3187,4099,5053,1894,210,Tag0,unknown
1545003964894,0,32,7.03125E-6,13,41,58,76381,161096,8978,3187,4099,5053,1894,210,Tag0,unknown
1545003964894,0,42,9.228515625000002E-6,13,41,58,76381,161096,8978,3187,4099,5053,1894,210,Tag0,unknown
1545003964894,0,50,1.0986328125E-5,13,41,58,76381,161096,8978,3187,4099,5053,1894,210,Tag0,unknown
1545003964906,0,36,7.91015625E-6,13,41,58,76381,161096,8978,3187,4099,5053,1894,210,Tag0,unknown
1545003964906,0,12,2.63671875E-6,13,41,58,76381,161096,8978,3187,4099,5053,1894,210,Tag0,unknown
1545003964906,0,10,2.197265625E-6,13,41,58,76381,161096,8978,3187,4099,5053,1894,210,Tag0,unknown
1545003964907,0,23,5.0537109375E-6,13,41,58,76381,161096,8978,3187,4099,5053,1894,210,Tag0,unknown
1545003964907,0,35,7.6904296875E-6,13,41,58,76381,161096,8978,3187,4099,5053,1894,210,Tag0,unknown
1545003964907,0,33,7.2509765625E-6,13,41,58,76381,161096,8978,3187,4099,5053,1894,210,Tag0,unknown
1545003964907,0,25,5.4931640625E-6,13,41,58,76381,161096,8978,3187,4099,5053,1894,210,Tag0,unknown
1545003964908,0,40,8.7890625E-6,13,41,58,76381,161096,8978,3187,4099,5053,1894,210,Tag0,unknown
1545003964908,0,65,1.42822265625E-5,13,41,58,76381,161096,8978,3187,4099,5053,1894,210,Tag0,unknown
1545003964926,0,86,1.8896484375000003E-5,13,41,58,76381,161096,8978,3187,4099,5053,1894,210,Tag0,unknown
1545003964926,0,85,1.86767578125E-5,13,41,58,76381,161096,8978,3187,4099,5053,1894,210,Tag0,unknown
1545003964926,0,74,1.6259765625E-5,13,41,58,76381,161096,8978,3187,4099,5053,1894,210,Tag0,unknown
1545003964929,0,70,1.5380859375E-5,13,41,58,76381,161096,8978,3187,4099,5053,1894,210,Tag0,unknown
1545003964929,0,61,1.34033203125E-5,13,41,58,76381,161096,8978,3187,4099,5053,1894,210,Tag0,unknown
1545003964929,0,60,1.318359375E-5,13,41,58,76381,161096,8978,3187,4099,5053,1894,210,Tag0,unknown
1545003964930,0,55,1.20849609375E-5,13,41,58,76381,161096,8978,3187,4099,5053,1894,210,Tag0,unknown
1545003964930,0,49,1.07666015625E-5,13,41,58,76381,161096,8978,3187,4099,5053,1894,210,Tag0,unknown
1545003964930,0,51,1.1206054687499999E-5,13,41,58,76381,161096,8978,3187,4099,5053,1894,210,Tag0,unknown
1545003964930,0,52,1.142578125E-5,13,41,58,76381,161096,8978,3187,4099,5053,1894,210,Tag0,unknown
1545003964940,0,53,1.1645507812500002E-5,13,41,58,76381,161096,8978,3187,4099,5053,1894,210,Tag0,unknown
1545003964940,0,54,1.1865234375000001E-5,13,41,58,76381,161096,8978,3187,4099,5053,1894,210,Tag0,unknown
1545003964940,0,55,1.20849609375E-5,13,41,58,76381,161096,8978,3187,4099,5053,1894,210,Tag0,unknown
1545003964940,0,49,1.07666015625E-5,13,41,58,76381,161096,8978,3187,4099,5053,1894,210,Tag0,unknown
1545003964941,0,51,1.1206054687499999E-5,13,41,58,76381,161096,8978,3187,4099,5053,1894,210,Tag0,unknown
1545003964941,0,67,1.4721679687500002E-5,13,41,58,76381,161096,8978,3187,4099,5053,1894,210,Tag0,unknown
1545003964941,0,74,1.6259765625E-5,13,41,58,76381,161096,8978,3187,4099,5053,1894,210,Tag0,unknown
1545003964958,0,59,1.29638671875E-5,13,41,58,76381,161096,8978,3187,4099,5053,1894,210,Tag0,unknown
1545003964958,0,42,9.228515625000002E-6,13,41,58,76381,161096,8978,3187,4099,5053,1894,210,Tag0,unknown
1545003964958,0,44,9.66796875E-6,13,41,58,76381,161096,8978,3187,4099,5053,1894,210,Tag0,unknown
1545003964958,0,52,1.142578125E-5,13,41,58,76381,161096,8978,3187,4099,5053,1894,210,Tag0,unknown
1545003964959,0,49,1.07666015625E-5,13,41,58,76381,161096,8978,3187,4099,5053,1894,210,Tag0,unknown
1545003964959,0,48,1.0546875E-5,13,41,58,76381,161096,8978,3187,4099,5053,1894,210,Tag0,unknown
1545003964962,0,48,1.0546875E-5,13,41,58,76381,161096,8978,3187,4099,5053,1894,210,Tag0,unknown
1545003964962,0,37,8.1298828125E-6,13,41,58,76381,161096,8978,3187,4099,5053,1894,210,Tag0,unknown
1545003964962,0,18,3.955078125E-6,13,41,58,76381,161096,8978,3187,4099,5053,1894,210,Tag0,unknown
1545003964963,0,25,5.4931640625E-6,13,41,58,76381,161096,8978,3187,4099,5053,1894,210,Tag0,unknown
1545003964976,0,41,9.008789062499999E-6,13,41,58,76381,161096,8978,3187,4099,5053,1894,210,Tag0,unknown
1545003964976,0,48,1.0546875E-5,13,41,58,76381,161096,8978,3187,4099,5053,1894,210,Tag0,unknown
1545003964976,0,44,9.66796875E-6,13,41,58,76381,161096,8978,3187,4099,5053,1894,210,Tag0,unknown
1545003964976,0,43,9.448242187500001E-6,13,41,58,76381,161096,8978,3187,4099,5053,1894,210,Tag0,unknown
1545003964976,0,51,1.1206054687499999E-5,13,41,58,76381,161096,8978,3187,4099,5053,1894,210,Tag0,unknown
1545003964977,0,53,1.1645507812500002E-5,13,41,58,76381,161096,8978,3187,4099,5053,1894,210,Tag0,unknown
1545003964977,0,52,1.142578125E-5,13,41,58,76381,161096,8978,3187,4099,5053,1894,210,Tag0,unknown
1545003964977,0,48,1.0546875E-5,13,41,58,76381,161096,8978,3187,4099,5053,1894,210,Tag0,unknown
1545003964977,0,45,9.8876953125E-6,13,41,58,76381,161096,8978,3187,4099,5053,1894,210,Tag0,unknown
1545003964989,0,40,8.7890625E-6,13,41,58,76381,161096,8978,3187,4099,5053,1894,210,Tag0,unknown
1545003964990,0,40,8.7890625E-6,13,41,58,76381,161096,8978,3187,4099,5053,1894,210,Tag0,unknown
1545003964992,0,44,9.66796875E-6,13,41,58,76381,161096,8978,3187,4099,5053,1894,210,Tag0,unknown
1545003964993,0,49,1.07666015625E-5,13,41,58,76381,161096,8978,3187,4099,5053,1894,210,Tag0,unknown
1545003964993,0,44,9.66796875E-6,13,41,58,76381,161096,8978,3187,4099,5053,1894,210,Tag0,unknown
1545003964993,0,48,1.0546875E-5,13,41,58,76381,161096,8978,3187,4099,5053,1894,210,Tag0,unknown
1545003965007,0,58,1.2744140625E-5,13,41,58,76381,161096,8978,3187,4099,5053,1894,210,Tag0,unknown
1545003965007,0,67,1.4721679687500002E-5,13,41,58,76381,161096,8978,3187,4099,5053,1894,210,Tag0,unknown
1545003965008,0,71,1.56005859375E-5,13,41,58,76381,161096,8978,3187,4099,5053,1894,210,Tag0,unknown
1545003965008,0,74,1.6259765625E-5,13,41,58,76381,161096,8978,3187,4099,5053,1894,210,Tag0,unknown
1545003965008,0,69,1.51611328125E-5,13,41,58,76381,161096,8978,3187,4099,5053,1894,210,Tag0,unknown
1545003965008,0,58,1.2744140625E-5,13,41,58,76381,161096,8978,3187,4099,5053,1894,210,Tag0,unknown
1545003965009,0,53,1.1645507812500002E-5,13,41,58,76381,161096,8978,3187,4099,5053,1894,210,Tag0,unknown
1545003965009,0,42,9.228515625000002E-6,13,41,58,76381,161096,8978,3187,4099,5053,1894,210,Tag0,unknown
1545003965009,0,40,8.7890625E-6,13,41,58,76381,161096,8978,3187,4099,5053,1894,210,Tag0,unknown
1545003965009,0,49,1.07666015625E-5,13,41,58,76381,161096,8978,3187,4099,5053,1894,210,Tag0,unknown
1545003965023,0,52,1.142578125E-5,13,41,58,76381,161096,8978,3187,4099,5053,1894,210,Tag0,unknown
1545003965024,0,52,1.142578125E-5,13,41,58,76381,161096,8978,3187,4099,5053,1894,210,Tag0,unknown
1545003965024,0,53,1.1645507812500002E-5,13,41,58,76381,161096,8978,3187,4099,5053,1894,210,Tag0,unknown
1545003965030,0,55,1.20849609375E-5,13,41,58,76381,161096,8978,3187,4099,5053,1894,210,Tag0,unknown
1545003965030,0,56,1.23046875E-5,13,41,58,76381,161096,8978,3187,4099,5053,1894,210,Tag0,unknown
1545003965030,0,49,1.07666015625E-5,13,41,58,76381,161096,8978,3187,4099,5053,1894,210,Tag0,unknown
1545003965030,0,28,6.15234375E-6,13,41,58,76381,161096,8978,3187,4099,5053,1894,210,Tag0,unknown
1545003965031,0,24,5.2734375E-6,13,41,58,76381,161096,8978,3187,4099,5053,1894,210,Tag0,unknown
1545003965040,0,27,5.9326171875000005E-6,13,41,58,76381,161096,8978,3187,4099,5053,1894,210,Tag0,unknown
1545003965040,0,32,7.03125E-6,13,41,58,76381,161096,8978,3187,4099,5053,1894,210,Tag0,unknown
1545003965040,0,42,9.228515625000002E-6,13,41,58,76381,161096,8978,3187,4099,5053,1894,210,Tag0,unknown
1545003965041,0,49,1.07666015625E-5,13,41,58,76381,161096,8978,3187,4099,5053,1894,210,Tag0,unknown
1545003965041,0,48,1.0546875E-5,13,41,58,76381,161096,8978,3187,4099,5053,1894,210,Tag0,unknown
1545003965041,0,53,1.1645507812500002E-5,13,41,58,76381,161096,8978,3187,4099,5053,1894,210,Tag0,unknown
1545003965041,0,60,1.318359375E-5,13,41,58,76381,161096,8978,3187,4099,5053,1894,210,Tag0,unknown
1545003965041,0,55,1.20849609375E-5,13,41,58,76381,161096,8978,3187,4099,5053,1894,210,Tag0,unknown
1545003965055,0,35,7.6904296875E-6,13,41,58,76381,161096,8978,3187,4099,5053,1894,210,Tag0,unknown
1545003965055,0,27,5.9326171875000005E-6,13,41,58,76381,161096,8978,3187,4099,5053,1894,210,Tag0,unknown
1545003965056,0,37,8.1298828125E-6,13,41,58,76381,161096,8978,3187,4099,5053,1894,210,Tag0,unknown
1545003965056,0,42,9.228515625000002E-6,13,41,58,76381,161096,8978,3187,4099,5053,1894,210,Tag0,unknown
1545003965056,0,35,7.6904296875E-6,13,41,58,76381,161096,8978,3187,4099,5053,1894,210,Tag0,unknown
1545003965056,0,28,6.15234375E-6,13,41,58,76381,161096,8978,3187,4099,5053,1894,210,Tag0,unknown
1545003965059,0,32,7.03125E-6,13,41,58,76381,161096,8978,3187,4099,5053,1894,210,Tag0,unknown
1545003965059,0,37,8.1298828125E-6,13,41,58,76381,161096,8978,3187,4099,5053,1894,210,Tag0,unknown
1545003965072,0,41,9.008789062499999E-6,13,41,58,76381,161096,8978,3187,4099,5053,1894,210,Tag0,unknown
1545003965072,0,42,9.228515625000002E-6,13,41,58,76381,161096,8978,3187,4099,5053,1894,210,Tag0,unknown
1545003965072,0,48,1.0546875E-5,13,41,58,76381,161096,8978,3187,4099,5053,1894,210,Tag0,unknown
1545003965072,0,50,1.0986328125E-5,13,41,58,76381,161096,8978,3187,4099,5053,1894,210,Tag0,unknown
1545003965073,0,48,1.0546875E-5,13,41,58,76381,161096,8978,3187,4099,5053,1894,210,Tag0,unknown
1545003965073,0,41,9.008789062499999E-6,13,41,58,76381,161096,8978,3187,4099,5053,1894,210,Tag0,unknown
1545003965073,0,48,1.0546875E-5,13,41,58,76381,161096,8978,3187,4099,5053,1894,210,Tag0,unknown
1545003965074,0,54,1.1865234375000001E-5,13,41,58,76381,161096,8978,3187,4099,5053,1894,210,Tag0,unknown
1545003965074,0,45,9.8876953125E-6,13,41,58,76381,161096,8978,3187,4099,5053,1894,210,Tag0,unknown
1545003965089,0,33,7.2509765625E-6,13,41,58,76381,161096,8978,3187,4099,5053,1894,210,Tag0,unknown
1545003965089,0,29,6.3720703125E-6,13,41,58,76381,161096,8978,3187,4099,5053,1894,210,Tag0,unknown
1545003965089,0,27,5.9326171875000005E-6,13,41,58,76381,161096,8978,3187,4099,5053,1894,210,Tag0,unknown
1545003965092,0,36,7.91015625E-6,13,41,58,76381,161096,8978,3187,4099,5053,1894,210,Tag0,unknown
1545003965092,0,60,1.318359375E-5,13,41,58,76381,161096,8978,3187,4099,5053,1894,210,Tag0,unknown
1545003965092,0,71,1.56005859375E-5,13,41,58,76381,161096,8978,3187,4099,5053,1894,210,Tag0,unknown
1545003965092,0,58,1.2744140625E-5,13,41,58,76381,161096,8978,3187,4099,5053,1894,210,Tag0,unknown
1545003965093,0,48,1.0546875E-5,13,41,58,76381,161096,8978,3187,4099,5053,1894,210,Tag0,unknown
1545003965108,0,49,1.07666015625E-5,13,41,58,76381,161096,8978,3187,4099,5053,1894,210,Tag0,unknown
1545003965108,0,56,1.23046875E-5,13,41,58,76381,161096,8978,3187,4099,5053,1894,210,Tag0,unknown
1545003965108,0,57,1.2524414062500001E-5,13,41,58,76381,161096,8978,3187,4099,5053,1894,210,Tag0,unknown
1545003965108,0,57,1.2524414062500001E-5,13,41,58,76381,161096,8978,3187,4099,5053,1894,210,Tag0,unknown
1545003965109,0,61,1.34033203125E-5,13,41,58,76381,161096,8978,3187,4099,5053,1894,210,Tag0,unknown
1545003965109,0,65,1.42822265625E-5,13,41,58,76381,161096,8978,3187,4099,5053,1894,210,Tag0,unknown
1545003965109,0,65,1.42822265625E-5,13,41,58,76381,161096,8978,3187,4099,5053,1894,210,Tag0,unknown
1545003965109,0,65,1.42822265625E-5,13,41,58,76381,161096,8978,3187,4099,5053,1894,210,Tag0,unknown
1545003965110,0,58,1.2744140625E-5,13,41,58,76381,161096,8978,3187,4099,5053,1894,210,Tag0,unknown
1545003965124,0,57,1.2524414062500001E-5,13,41,58,76381,161096,8978,3187,4099,5053,1894,210,Tag0,unknown
1545003965125,0,56,1.23046875E-5,13,41,58,76381,161096,8978,3187,4099,5053,1894,210,Tag0,unknown
1545003965125,0,52,1.142578125E-5,13,41,58,76381,161096,8978,3187,4099,5053,1894,210,Tag0,unknown
1545003965125,0,60,1.318359375E-5,13,41,58,76381,161096,8978,3187,4099,5053,1894,210,Tag0,unknown
1545003965125,0,80,1.7578125E-5,13,41,58,76381,161096,8978,3187,4099,5053,1894,210,Tag0,unknown
1545003965128,0,75,1.64794921875E-5,13,41,58,76381,161096,8978,3187,4099,5053,1894,210,Tag0,unknown
1545003965129,0,58,1.2744140625E-5,13,41,58,76381,161096,8978,3187,4099,5053,1894,210,Tag0,unknown
1545003965129,0,48,1.0546875E-5,13,41,58,76381,161096,8978,3187,4099,5053,1894,210,Tag0,unknown
1545003965129,0,43,9.448242187500001E-6,13,41,58,76381,161096,8978,3187,4099,5053,1894,210,Tag0,unknown
1545003965140,0,60,1.318359375E-5,13,41,58,76381,161096,8978,3187,4099,5053,1894,210,Tag0,unknown
1545003965140,0,81,1.77978515625E-5,13,41,58,76381,161096,8978,3187,4099,5053,1894,210,Tag0,unknown
1545003965140,0,75,1.64794921875E-5,13,41,58,76381,161096,8978,3187,4099,5053,1894,210,Tag0,unknown
1545003965141,0,69,1.51611328125E-5,13,41,58,76381,161096,8978,3187,4099,5053,1894,210,Tag0,unknown
1545003965141,0,66,1.4501953125E-5,13,41,58,76381,161096,8978,3187,4099,5053,1894,210,Tag0,unknown
1545003965141,0,66,1.4501953125E-5,13,41,58,76381,161096,8978,3187,4099,5053,1894,210,Tag0,unknown
1545003965141,0,61,1.34033203125E-5,13,41,58,76381,161096,8978,3187,4099,5053,1894,210,Tag0,unknown
1545003965141,0,59,1.29638671875E-5,13,41,58,76381,161096,8978,3187,4099,5053,1894,210,Tag0,unknown
1545003965142,0,61,1.34033203125E-5,13,41,58,76381,161096,8978,3187,4099,5053,1894,210,Tag0,unknown
1545003965157,0,67,1.4721679687500002E-5,13,41,58,76381,161096,8978,3187,4099,5053,1894,210,Tag0,unknown
1545003965157,0,67,1.4721679687500002E-5,13,41,58,76381,161096,8978,3187,4099,5053,1894,210,Tag0,unknown
1545003965157,0,50,1.0986328125E-5,13,41,58,76381,161096,8978,3187,4099,5053,1894,210,Tag0,unknown
1545003965160,0,40,8.7890625E-6,13,41,58,76381,161096,8978,3187,4099,5053,1894,210,Tag0,unknown
1545003965161,0,54,1.1865234375000001E-5,13,41,58,76381,161096,8978,3187,4099,5053,1894,210,Tag0,unknown
1545003965161,0,61,1.34033203125E-5,13,41,58,76381,161096,8978,3187,4099,5053,1894,210,Tag0,unknown
1545003965161,0,58,1.2744140625E-5,13,41,58,76381,161096,8978,3187,4099,5053,1894,210,Tag0,unknown
1545003965161,0,49,1.07666015625E-5,13,41,58,76381,161096,8978,3187,4099,5053,1894,210,Tag0,unknown
1545003965175,0,36,7.91015625E-6,13,41,58,76381,161096,8978,3187,4099,5053,1894,210,Tag0,unknown
1545003965175,0,33,7.2509765625E-6,13,41,58,76381,161096,8978,3187,4099,5053,1894,210,Tag0,unknown
1545003965175,0,33,7.2509765625E-6,13,41,58,76381,161096,8978,3187,4099,5053,1894,210,Tag0,unknown
1545003965176,0,32,7.03125E-6,13,41,58,76381,161096,8978,3187,4099,5053,1894,210,Tag0,unknown
1545003965176,0,29,6.3720703125E-6,13,41,58,76381,161096,8978,3187,4099,5053,1894,210,Tag0,unknown
1545003965176,0,26,5.712890625E-6,13,41,58,76381,161096,8978,3187,4099,5053,1894,210,Tag0,unknown
1545003965176,0,23,5.0537109375E-6,13,41,58,76381,161096,8978,3187,4099,5053,1894,210,Tag0,unknown
1545003965176,0,27,5.9326171875000005E-6,13,41,58,76381,161096,8978,3187,4099,5053,1894,210,Tag0,unknown
1545003965177,0,28,6.15234375E-6,13,41,58,76381,161096,8978,3187,4099,5053,1894,210,Tag0,unknown
1545003965177,0,23,5.0537109375E-6,13,41,58,76381,161096,8978,3187,4099,5053,1894,210,Tag0,unknown
1545003965192,0,17,3.7353515625000003E-6,13,41,58,76381,161096,8978,3187,4099,5053,1894,210,Tag0,unknown
1545003965192,0,10,2.197265625E-6,13,41,58,76381,161096,8978,3187,4099,5053,1894,210,Tag0,unknown
1545003965195,0,10,2.197265625E-6,13,41,58,76381,161096,8978,3187,4099,5053,1894,210,Tag0,unknown
1545003965195,0,39,8.5693359375E-6,13,41,58,76381,161096,8978,3187,4099,5053,1894,210,Tag0,unknown
1545003965195,0,61,1.34033203125E-5,13,41,58,76381,161096,8978,3187,4099,5053,1894,210,Tag0,unknown
1545003965196,0,57,1.2524414062500001E-5,13,41,58,76381,161096,8978,3187,4099,5053,1894,210,Tag0,unknown
1545003965196,0,37,8.1298828125E-6,13,41,58,76381,161096,8978,3187,4099,5053,1894,210,Tag0,unknown
1545003965196,0,36,7.91015625E-6,13,41,58,76381,161096,8978,3187,4099,5053,1894,210,Tag0,unknown
1545003965207,0,40,8.7890625E-6,13,41,58,76381,161096,8978,3187,4099,5053,1894,210,Tag0,unknown
1545003965208,0,35,7.6904296875E-6,13,41,58,76381,161096,8978,3187,4099,5053,1894,210,Tag0,unknown
1545003965208,0,33,7.2509765625E-6,13,41,58,76381,161096,8978,3187,4099,5053,1894,210,Tag0,unknown
1545003965208,0,51,1.1206054687499999E-5,13,41,58,76381,161096,8978,3187,4099,5053,1894,210,Tag0,unknown
1545003965209,0,54,1.1865234375000001E-5,13,41,58,76381,161096,8978,3187,4099,5053,1894,210,Tag0,unknown
1545003965209,0,65,1.42822265625E-5,13,41,58,76381,161096,8978,3187,4099,5053,1894,210,Tag0,unknown
1545003965209,0,76,1.669921875E-5,13,41,58,76381,161096,8978,3187,4099,5053,1894,210,Tag0,unknown
1545003965209,0,53,1.1645507812500002E-5,13,41,58,76381,161096,8978,3187,4099,5053,1894,210,Tag0,unknown
1545003965223,0,27,5.9326171875000005E-6,13,41,58,76381,161096,8978,3187,4099,5053,1894,210,Tag0,unknown
1545003965223,0,51,1.1206054687499999E-5,13,41,58,76381,161096,8978,3187,4099,5053,1894,210,Tag0,unknown
1545003965223,0,73,1.6040039062500002E-5,13,41,58,76381,161096,8978,3187,4099,5053,1894,210,Tag0,unknown
1545003965223,0,75,1.64794921875E-5,13,41,58,76381,161096,8978,3187,4099,5053,1894,210,Tag0,unknown
1545003965224,0,71,1.56005859375E-5,13,41,58,76381,161096,8978,3187,4099,5053,1894,210,Tag0,unknown
1545003965224,0,71,1.56005859375E-5,13,41,58,76381,161096,8978,3187,4099,5053,1894,210,Tag0,unknown
1545003965224,0,77,1.69189453125E-5,13,41,58,76381,161096,8978,3187,4099,5053,1894,210,Tag0,unknown
1545003965225,0,65,1.42822265625E-5,13,41,58,76381,161096,8978,3187,4099,5053,1894,210,Tag0,unknown
1545003965241,0,57,1.2524414062500001E-5,13,41,58,76381,161096,8978,3187,4099,5053,1894,210,Tag0,unknown
1545003965241,0,57,1.2524414062500001E-5,13,41,58,76381,161096,8978,3187,4099,5053,1894,210,Tag0,unknown
1545003965292,0,58,1.2744140625E-5,13,41,58,76381,161096,8978,3187,4099,5053,1894,210,Tag0,unknown
1545003965308,0,67,1.4721679687500002E-5,13,41,58,76381,161096,8978,3187,4099,5053,1894,210,Tag0,unknown
1545003965360,0,65,1.42822265625E-5,13,41,58,76381,161096,8978,3187,4099,5053,1894,210,Tag0,unknown
1545003965373,0,59,1.29638671875E-5,13,41,58,76381,161096,8978,3187,4099,5053,1894,210,Tag0,unknown
1545003965374,0,64,1.40625E-5,13,41,58,76381,161096,8978,3187,4099,5053,1894,210,Tag0,unknown
1545003965375,0,66,1.4501953125E-5,13,41,58,76381,161096,8978,3187,4099,5053,1894,210,Tag0,unknown
1545003965375,0,50,1.0986328125E-5,13,41,58,76381,161096,8978,3187,4099,5053,1894,210,Tag0,unknown
1545003965375,0,33,7.2509765625E-6,13,41,58,76381,161096,8978,3187,4099,5053,1894,210,Tag0,unknown
1545003965376,0,19,4.1748046875E-6,13,41,58,76381,161096,8978,3187,4099,5053,1894,210,Tag0,unknown
1545003965376,0,2,4.39453125E-7,13,41,58,76381,161096,8978,3187,4099,5053,1894,210,Tag0,unknown
1545003965376,0,-269,-5.9106445312499996E-5,13,41,58,76381,161096,8978,3187,4099,5053,1894,210,Tag0,unknown
1545003965376,0,-279,-6.13037109375E-5,13,41,58,76381,161096,8978,3187,4099,5053,1894,210,Tag0,unknown
1545003965377,0,-289,-6.35009765625E-5,13,41,58,76381,161096,8978,3187,4099,5053,1894,210,Tag0,unknown
1545003965377,0,-292,-6.416015625000001E-5,13,41,58,76381,161096,8978,3187,4099,5053,1894,210,Tag0,unknown
1545003965378,0,-290,-6.3720703125E-5,13,41,58,76381,161096,8978,3187,4099,5053,1894,210,Tag0,unknown
1545003965378,0,-280,-6.15234375E-5,13,41,58,76381,161096,8978,3187,4099,5053,1894,210,Tag0,unknown
1545003965378,0,-282,-6.1962890625E-5,13,41,58,76381,161096,8978,3187,4099,5053,1894,210,Tag0,unknown
1545003965379,0,-292,-6.416015625000001E-5,13,41,58,76381,161096,8978,3187,4099,5053,1894,210,Tag0,unknown
1545003965379,0,-295,-6.48193359375E-5,13,41,58,76381,161096,8978,3187,4099,5053,1894,210,Tag0,unknown
1545003965380,0,-297,-6.525878906250001E-5,13,41,58,76381,161096,8978,3187,4099,5053,1894,210,Tag0,unknown
1545003965380,0,-297,-6.525878906250001E-5,13,41,58,76381,161096,8978,3187,4099,5053,1894,210,Tag0,unknown
1545003965380,0,-292,-6.416015625000001E-5,13,41,58,76381,161096,8978,3187,4099,5053,1894,210,Tag0,unknown
1545003965380,0,-290,-6.3720703125E-5,13,41,58,76381,161096,8978,3187,4099,5053,1894,210,Tag0,unknown
1545003965381,0,-294,-6.4599609375E-5,13,41,58,76381,161096,8978,3187,4099,5053,1894,210,Tag0,unknown
1545003965381,0,-301,-6.613769531250001E-5,13,41,58,76381,161096,8978,3187,4099,5053,1894,210,Tag0,unknown
1545003965381,0,-307,-6.74560546875E-5,13,41,58,76381,161096,8978,3187,4099,5053,1894,210,Tag0,unknown
1545003965381,0,-308,-6.767578125E-5,13,41,58,76381,161096,8978,3187,4099,5053,1894,210,Tag0,unknown
1545003965382,0,-312,-6.85546875E-5,13,41,58,76381,161096,8978,3187,4099,5053,1894,210,Tag0,unknown
1545003965383,0,-314,-6.8994140625E-5,13,41,58,76381,161096,8978,3187,4099,5053,1894,210,Tag0,unknown
1545003965384,0,-313,-6.87744140625E-5,13,41,58,76381,161096,8978,3187,4099,5053,1894,210,Tag0,unknown
1545003965384,0,-310,-6.8115234375E-5,13,41,58,76381,161096,8978,3187,4099,5053,1894,210,Tag0,unknown
1545003965384,0,-301,-6.613769531250001E-5,13,41,58,76381,161096,8978,3187,4099,5053,1894,210,Tag0,unknown
1545003965384,0,-301,-6.613769531250001E-5,13,41,58,76381,161096,8978,3187,4099,5053,1894,210,Tag0,unknown
1545003965385,0,-311,-6.833496093750001E-5,13,41,58,76381,161096,8978,3187,4099,5053,1894,210,Tag0,unknown
1545003965385,0,-299,-6.56982421875E-5,13,41,58,76381,161096,8978,3187,4099,5053,1894,210,Tag0,unknown
1545003965385,0,-300,-6.591796875E-5,13,41,58,76381,161096,8978,3187,4099,5053,1894,210,Tag0,unknown
1545003965401,0,-307,-6.74560546875E-5,13,41,58,76381,161096,8978,3187,4099,5053,1894,210,Tag0,unknown
