timestampMs,poorSignal,eegRawValue,eegRawValueVolts,attention,meditation,blinkStrength,delta,theta,alphaLow,alphaHigh,betaLow,betaHigh,gammaLow,gammaMid,tagEvent,location
1545011815539,0,-89,-1.95556640625E-5,38,43,72,1290816,241783,16758347,16748418,9487,8532,7349,2670,Tag0,unknown
1545011815553,0,117,2.5708007812499998E-5,38,43,72,1290816,241783,16758347,16748418,9487,8532,7349,2670,Tag0,unknown
1545011815553,0,81,1.77978515625E-5,38,43,72,1290816,241783,16758347,16748418,9487,8532,7349,2670,Tag0,unknown
1545011815555,0,85,1.86767578125E-5,38,43,72,1290816,241783,16758347,16748418,9487,8532,7349,2670,Tag0,unknown
1545011815555,0,102,2.2412109374999998E-5,38,43,72,1290816,241783,16758347,16748418,9487,8532,7349,2670,Tag0,unknown
1545011815555,0,89,1.95556640625E-5,38,43,72,1290816,241783,16758347,16748418,9487,8532,7349,2670,Tag0,unknown
1545011815555,0,71,1.56005859375E-5,38,43,72,1290816,241783,16758347,16748418,9487,8532,7349,2670,Tag0,unknown
1545011815555,0,84,1.8457031250000004E-5,38,43,72,1290816,241783,16758347,16748418,9487,8532,7349,2670,Tag0,unknown
1545011815555,0,-126,-2.7685546875E-5,38,43,72,1290816,241783,16758347,16748418,9487,8532,7349,2670,Tag0,unknown
1545011815555,0,-96,-2.109375E-5,38,43,72,1290816,241783,16758347,16748418,9487,8532,7349,2670,Tag0,unknown
1545011815556,0,-122,-2.6806640625E-5,38,43,72,1290816,241783,16758347,16748418,9487,8532,7349,2670,Tag0,unknown
1545011815556,0,86,1.8896484375000003E-5,38,43,72,1290816,241783,16758347,16748418,9487,8532,7349,2670,Tag0,unknown
1545011815568,0,55,1.20849609375E-5,38,43,72,1290816,241783,16758347,16748418,9487,8532,7349,2670,Tag0,unknown
1545011815569,0,73,1.6040039062500002E-5,38,43,72,1290816,241783,16758347,16748418,9487,8532,7349,2670,Tag0,unknown
1545011815569,0,105,2.30712890625E-5,38,43,72,1290816,241783,16758347,16748418,9487,8532,7349,2670,Tag0,unknown
1545011815569,0,87,1.91162109375E-5,38,43,72,1290816,241783,16758347,16748418,9487,8532,7349,2670,Tag0,unknown
1545011815569,0,40,8.7890625E-6,38,43,72,1290816,241783,16758347,16748418,9487,8532,7349,2670,Tag0,unknown
1545011815569,0,22,4.833984375E-6,38,43,72,1290816,241783,16758347,16748418,9487,8532,7349,2670,Tag0,unknown
1545011815569,0,65,1.42822265625E-5,38,43,72,1290816,241783,16758347,16748418,9487,8532,7349,2670,Tag0,unknown
1545011815570,0,121,2.6586914062500003E-5,38,43,72,1290816,241783,16758347,16748418,9487,8532,7349,2670,Tag0,unknown
1545011815586,0,-121,-2.6586914062500003E-5,38,43,72,1290816,241783,16758347,16748418,9487,8532,7349,2670,Tag0,unknown
1545011815586,0,90,1.9775390625E-5,38,43,72,1290816,241783,16758347,16748418,9487,8532,7349,2670,Tag0,unknown
1545011815588,0,50,1.0986328125E-5,38,43,72,1290816,241783,16758347,16748418,9487,8532,7349,2670,Tag0,unknown
1545011815588,0,58,1.2744140625E-5,38,43,72,1290816,241783,16758347,16748418,9487,8532,7349,2670,Tag0,unknown
1545011815589,0,91,1.99951171875E-5,38,43,72,1290816,241783,16758347,16748418,9487,8532,7349,2670,Tag0,unknown
1545011815589,0,91,1.99951171875E-5,38,43,72,1290816,241783,16758347,16748418,9487,8532,7349,2670,Tag0,unknown
1545011815589,0,51,1.1206054687499999E-5,38,43,72,1290816,241783,16758347,16748418,9487,8532,7349,2670,Tag0,unknown
1545011815589,0,8,1.7578125E-6,38,43,72,1290816,241783,16758347,16748418,9487,8532,7349,2670,Tag0,unknown
1545011815589,0,10,2.197265625E-6,38,43,72,1290816,241783,16758347,16748418,9487,8532,7349,2670,Tag0,unknown
1545011815602,0,52,1.142578125E-5,38,43,72,1290816,241783,16758347,16748418,9487,8532,7349,2670,Tag0,unknown
1545011815602,0,73,1.6040039062500002E-5,38,43,72,1290816,241783,16758347,16748418,9487,8532,7349,2670,Tag0,unknown
1545011815602,0,59,1.29638671875E-5,38,43,72,1290816,241783,16758347,16748418,9487,8532,7349,2670,Tag0,unknown
1545011815603,0,32,7.03125E-6,38,43,72,1290816,241783,16758347,16748418,9487,8532,7349,2670,Tag0,unknown
1545011815603,0,26,5.712890625E-6,38,43,72,1290816,241783,16758347,16748418,9487,8532,7349,2670,Tag0,unknown
1545011815603,0,54,1.1865234375000001E-5,38,43,72,1290816,241783,16758347,16748418,9487,8532,7349,2670,Tag0,unknown
1545011815603,0,80,1.7578125E-5,38,43,72,1290816,241783,16758347,16748418,9487,8532,7349,2670,Tag0,unknown
1545011815603,0,65,1.42822265625E-5,38,43,72,1290816,241783,16758347,16748418,9487,8532,7349,2670,Tag0,unknown
1545011815618,0,23,5.0537109375E-6,38,43,72,1290816,241783,16758347,16748418,9487,8532,7349,2670,Tag0,unknown
1545011815619,0,12,2.63671875E-6,38,43,72,1290816,241783,16758347,16748418,9487,8532,7349,2670,Tag0,unknown
1545011815619,0,48,1.0546875E-5,38,43,72,1290816,241783,16758347,16748418,9487,8532,7349,2670,Tag0,unknown
1545011815619,0,59,1.29638671875E-5,38,43,72,1290816,241783,16758347,16748418,9487,8532,7349,2670,Tag0,unknown
1545011815619,0,37,8.1298828125E-6,38,43,72,1290816,241783,16758347,16748418,9487,8532,7349,2670,Tag0,unknown
1545011815619,0,3,6.591796875E-7,38,43,72,1290816,241783,16758347,16748418,9487,8532,7349,2670,Tag0,unknown
1545011815620,0,-264,-5.80078125E-5,38,43,72,1290816,241783,16758347,16748418,9487,8532,7349,2670,Tag0,unknown
1545011815620,0,16,3.515625E-6,38,43,72,1290816,241783,16758347,16748418,9487,8532,7349,2670,Tag0,unknown
1545011815620,0,58,1.2744140625E-5,38,43,72,1290816,241783,16758347,16748418,9487,8532,7349,2670,Tag0,unknown
1545011815635,0,60,1.318359375E-5,38,43,72,1290816,241783,16758347,16748418,9487,8532,7349,2670,Tag0,unknown
1545011815635,0,34,7.4707031250000005E-6,38,43,72,1290816,241783,16758347,16748418,9487,8532,7349,2670,Tag0,unknown
1545011815636,0,24,5.2734375E-6,38,43,72,1290816,241783,16758347,16748418,9487,8532,7349,2670,Tag0,unknown
1545011815636,0,48,1.0546875E-5,38,43,72,1290816,241783,16758347,16748418,9487,8532,7349,2670,Tag0,unknown
1545011815636,0,72,1.58203125E-5,38,43,72,1290816,241783,16758347,16748418,9487,8532,7349,2670,Tag0,unknown
1545011815636,0,69,1.51611328125E-5,38,43,72,1290816,241783,16758347,16748418,9487,8532,7349,2670,Tag0,unknown
1545011815636,0,48,1.0546875E-5,38,43,72,1290816,241783,16758347,16748418,9487,8532,7349,2670,Tag0,unknown
1545011815636,0,36,7.91015625E-6,38,43,72,1290816,241783,16758347,16748418,9487,8532,7349,2670,Tag0,unknown
1545011815652,0,52,1.142578125E-5,38,43,72,1290816,241783,16758347,16748418,9487,8532,7349,2670,Tag0,unknown
1545011815652,0,81,1.77978515625E-5,38,43,72,1290816,241783,16758347,16748418,9487,8532,7349,2670,Tag0,unknown
1545011815652,0,73,1.6040039062500002E-5,38,43,72,1290816,241783,16758347,16748418,9487,8532,7349,2670,Tag0,unknown
1545011815652,0,33,7.2509765625E-6,38,43,72,1290816,241783,16758347,16748418,9487,8532,7349,2670,Tag0,unknown
1545011815653,0,-260,-5.712890625E-5,38,43,72,1290816,241783,16758347,16748418,9487,8532,7349,2670,Tag0,unknown
1545011815653,0,17,3.7353515625000003E-6,38,43,72,1290816,241783,16758347,16748418,9487,8532,7349,2670,Tag0,unknown
1545011815653,0,69,1.51611328125E-5,38,43,72,1290816,241783,16758347,16748418,9487,8532,7349,2670,Tag0,unknown
1545011815653,0,82,1.8017578124999998E-5,38,43,72,1290816,241783,16758347,16748418,9487,8532,7349,2670,Tag0,unknown
1545011815653,0,49,1.07666015625E-5,38,43,72,1290816,241783,16758347,16748418,9487,8532,7349,2670,Tag0,unknown
1545011815668,0,17,3.7353515625000003E-6,38,43,72,1290816,241783,16758347,16748418,9487,8532,7349,2670,Tag0,unknown
1545011815669,0,16,3.515625E-6,38,43,72,1290816,241783,16758347,16748418,9487,8532,7349,2670,Tag0,unknown
1545011815669,0,35,7.6904296875E-6,38,43,72,1290816,241783,16758347,16748418,9487,8532,7349,2670,Tag0,unknown
1545011815669,0,44,9.66796875E-6,38,43,72,1290816,241783,16758347,16748418,9487,8532,7349,2670,Tag0,unknown
1545011815669,0,25,5.4931640625E-6,38,43,72,1290816,241783,16758347,16748418,9487,8532,7349,2670,Tag0,unknown
1545011815670,0,-258,-5.6689453125000004E-5,38,43,72,1290816,241783,16758347,16748418,9487,8532,7349,2670,Tag0,unknown
1545011815670,0,-260,-5.712890625E-5,38,43,72,1290816,241783,16758347,16748418,9487,8532,7349,2670,Tag0,unknown
1545011815670,0,22,4.833984375E-6,38,43,72,1290816,241783,16758347,16748418,9487,8532,7349,2670,Tag0,unknown
1545011815685,0,35,7.6904296875E-6,38,43,72,1290816,241783,16758347,16748418,9487,8532,7349,2670,Tag0,unknown
1545011815686,0,-258,-5.6689453125000004E-5,38,43,72,1290816,241783,16758347,16748418,9487,8532,7349,2670,Tag0,unknown
1545011815686,0,-302,-6.6357421875E-5,38,43,72,1290816,241783,16758347,16748418,9487,8532,7349,2670,Tag0,unknown
1545011815686,0,-297,-6.525878906250001E-5,38,43,72,1290816,241783,16758347,16748418,9487,8532,7349,2670,Tag0,unknown
1545011815686,0,2,4.39453125E-7,38,43,72,1290816,241783,16758347,16748418,9487,8532,7349,2670,Tag0,unknown
1545011815686,0,26,5.712890625E-6,38,43,72,1290816,241783,16758347,16748418,9487,8532,7349,2670,Tag0,unknown
1545011815687,0,17,3.7353515625000003E-6,38,43,72,1290816,241783,16758347,16748418,9487,8532,7349,2670,Tag0,unknown
1545011815687,0,-268,-5.8886718750000006E-5,38,43,72,1290816,241783,16758347,16748418,9487,8532,7349,2670,Tag0,unknown
1545011815687,0,-290,-6.3720703125E-5,38,43,72,1290816,241783,16758347,16748418,9487,8532,7349,2670,Tag0,unknown
1545011815702,0,-268,-5.8886718750000006E-5,38,43,72,1290816,241783,16758347,16748418,9487,8532,7349,2670,Tag0,unknown
1545011815702,0,17,3.7353515625000003E-6,38,43,72,1290816,241783,16758347,16748418,9487,8532,7349,2670,Tag0,unknown
1545011815702,0,7,1.5380859375E-6,38,43,72,1290816,241783,16758347,16748418,9487,8532,7349,2670,Tag0,unknown
1545011815702,0,-279,-6.13037109375E-5,38,43,72,1290816,241783,16758347,16748418,9487,8532,7349,2670,Tag0,unknown
1545011815702,0,-296,-6.50390625E-5,38,43,72,1290816,241783,16758347,16748418,9487,8532,7349,2670,Tag0,unknown
1545011815703,0,-268,-5.8886718750000006E-5,38,43,72,1290816,241783,16758347,16748418,9487,8532,7349,2670,Tag0,unknown
1545011815703,0,23,5.0537109375E-6,38,43,72,1290816,241783,16758347,16748418,9487,8532,7349,2670,Tag0,unknown
1545011815703,0,21,4.614257812500001E-6,38,43,72,1290816,241783,16758347,16748418,9487,8532,7349,2670,Tag0,unknown
1545011815703,0,-259,-5.69091796875E-5,38,43,72,1290816,241783,16758347,16748418,9487,8532,7349,2670,Tag0,unknown
1545011815718,0,-269,-5.9106445312499996E-5,38,43,72,1290816,241783,16758347,16748418,9487,8532,7349,2670,Tag0,unknown
1545011815719,0,13,2.8564453125E-6,38,43,72,1290816,241783,16758347,16748418,9487,8532,7349,2670,Tag0,unknown
1545011815719,0,49,1.07666015625E-5,38,43,72,1290816,241783,16758347,16748418,9487,8532,7349,2670,Tag0,unknown
1545011815719,0,39,8.5693359375E-6,38,43,72,1290816,241783,16758347,16748418,9487,8532,7349,2670,Tag0,unknown
1545011815719,0,2,4.39453125E-7,38,43,72,1290816,241783,16758347,16748418,9487,8532,7349,2670,Tag0,unknown
1545011815719,0,-270,-5.9326171875E-5,38,43,72,1290816,241783,16758347,16748418,9487,8532,7349,2670,Tag0,unknown
1545011815719,0,10,2.197265625E-6,38,43,72,1290816,241783,16758347,16748418,9487,8532,7349,2670,Tag0,unknown
1545011815719,0,50,1.0986328125E-5,38,43,72,1290816,241783,16758347,16748418,9487,8532,7349,2670,Tag0,unknown
1545011815735,0,52,1.142578125E-5,38,43,72,1290816,241783,16758347,16748418,9487,8532,7349,2670,Tag0,unknown
1545011815735,0,13,2.8564453125E-6,38,43,72,1290816,241783,16758347,16748418,9487,8532,7349,2670,Tag0,unknown
1545011815735,0,-268,-5.8886718750000006E-5,38,43,72,1290816,241783,16758347,16748418,9487,8532,7349,2670,Tag0,unknown
1545011815736,0,12,2.63671875E-6,38,43,72,1290816,241783,16758347,16748418,9487,8532,7349,2670,Tag0,unknown
1545011815736,0,54,1.1865234375000001E-5,38,43,72,1290816,241783,16758347,16748418,9487,8532,7349,2670,Tag0,unknown
1545011815736,0,52,1.142578125E-5,38,43,72,1290816,241783,16758347,16748418,9487,8532,7349,2670,Tag0,unknown
1545011815736,0,18,3.955078125E-6,38,43,72,1290816,241783,16758347,16748418,9487,8532,7349,2670,Tag0,unknown
1545011815736,0,-259,-5.69091796875E-5,38,43,72,1290816,241783,16758347,16748418,9487,8532,7349,2670,Tag0,unknown
1545011815752,0,19,4.1748046875E-6,38,43,72,1290816,241783,16758347,16748418,9487,8532,7349,2670,Tag0,unknown
1545011815752,0,65,1.42822265625E-5,38,43,72,1290816,241783,16758347,16748418,9487,8532,7349,2670,Tag0,unknown
1545011815752,0,71,1.56005859375E-5,38,43,72,1290816,241783,16758347,16748418,9487,8532,7349,2670,Tag0,unknown
1545011815752,0,37,8.1298828125E-6,38,43,72,1290816,241783,16758347,16748418,9487,8532,7349,2670,Tag0,unknown
1545011815752,0,7,1.5380859375E-6,38,43,72,1290816,241783,16758347,16748418,9487,8532,7349,2670,Tag0,unknown
1545011815753,0,27,5.9326171875000005E-6,38,43,72,1290816,241783,16758347,16748418,9487,8532,7349,2670,Tag0,unknown
1545011815753,0,73,1.6040039062500002E-5,38,43,72,1290816,241783,16758347,16748418,9487,8532,7349,2670,Tag0,unknown
1545011815753,0,88,1.93359375E-5,38,43,72,1290816,241783,16758347,16748418,9487,8532,7349,2670,Tag0,unknown
1545011815753,0,55,1.20849609375E-5,38,43,72,1290816,241783,16758347,16748418,9487,8532,7349,2670,Tag0,unknown
1545011815768,0,24,5.2734375E-6,38,43,72,1290816,241783,16758347,16748418,9487,8532,7349,2670,Tag0,unknown
1545011815769,0,34,7.4707031250000005E-6,38,43,72,1290816,241783,16758347,16748418,9487,8532,7349,2670,Tag0,unknown
1545011815769,0,74,1.6259765625E-5,38,43,72,1290816,241783,16758347,16748418,9487,8532,7349,2670,Tag0,unknown
1545011815769,0,96,2.109375E-5,38,43,72,1290816,241783,16758347,16748418,9487,8532,7349,2670,Tag0,unknown
1545011815769,0,71,1.56005859375E-5,38,43,72,1290816,241783,16758347,16748418,9487,8532,7349,2670,Tag0,unknown
1545011815769,0,35,7.6904296875E-6,38,43,72,1290816,241783,16758347,16748418,9487,8532,7349,2670,Tag0,unknown
1545011815769,0,21,4.614257812500001E-6,38,43,72,1290816,241783,16758347,16748418,9487,8532,7349,2670,Tag0,unknown
1545011815769,0,56,1.23046875E-5,38,43,72,1290816,241783,16758347,16748418,9487,8532,7349,2670,Tag0,unknown
1545011815785,0,84,1.8457031250000004E-5,38,43,72,1290816,241783,16758347,16748418,9487,8532,7349,2670,Tag0,unknown
1545011815786,0,65,1.42822265625E-5,38,43,72,1290816,241783,16758347,16748418,9487,8532,7349,2670,Tag0,unknown
1545011815786,0,28,6.15234375E-6,38,43,72,1290816,241783,16758347,16748418,9487,8532,7349,2670,Tag0,unknown
1545011815786,0,19,4.1748046875E-6,38,43,72,1290816,241783,16758347,16748418,9487,8532,7349,2670,Tag0,unknown
1545011815786,0,40,8.7890625E-6,38,43,72,1290816,241783,16758347,16748418,9487,8532,7349,2670,Tag0,unknown
1545011815786,0,53,1.1645507812500002E-5,38,43,72,1290816,241783,16758347,16748418,9487,8532,7349,2670,Tag0,unknown
1545011815787,0,33,7.2509765625E-6,38,43,72,1290816,241783,16758347,16748418,9487,8532,7349,2670,Tag0,unknown
1545011815787,0,3,6.591796875E-7,38,43,72,1290816,241783,16758347,16748418,9487,8532,7349,2670,Tag0,unknown
1545011815787,0,10,2.197265625E-6,38,43,72,1290816,241783,16758347,16748418,9487,8532,7349,2670,Tag0,unknown
1545011815805,0,48,1.0546875E-5,38,43,72,1290816,241783,16758347,16748418,9487,8532,7349,2670,Tag0,unknown
1545011815806,0,50,1.0986328125E-5,38,43,72,1290816,241783,16758347,16748418,9487,8532,7349,2670,Tag0,unknown
1545011815806,0,7,1.5380859375E-6,38,43,72,1290816,241783,16758347,16748418,9487,8532,7349,2670,Tag0,unknown
1545011815806,0,-273,-5.998535156250001E-5,38,43,72,1290816,241783,16758347,16748418,9487,8532,7349,2670,Tag0,unknown
1545011815806,0,3,6.591796875E-7,38,43,72,1290816,241783,16758347,16748418,9487,8532,7349,2670,Tag0,unknown
1545011815806,0,36,7.91015625E-6,38,43,72,1290816,241783,16758347,16748418,9487,8532,7349,2670,Tag0,unknown
1545011815807,0,53,1.1645507812500002E-5,38,43,72,1290816,241783,16758347,16748418,9487,8532,7349,2670,Tag0,unknown
1545011815807,0,39,8.5693359375E-6,38,43,72,1290816,241783,16758347,16748418,9487,8532,7349,2670,Tag0,unknown
1545011815807,0,6,1.318359375E-6,38,43,72,1290816,241783,16758347,16748418,9487,8532,7349,2670,Tag0,unknown
1545011815819,0,-264,-5.80078125E-5,38,43,72,1290816,241783,16758347,16748418,9487,8532,7349,2670,Tag0,unknown
1545011815819,0,23,5.0537109375E-6,38,43,72,1290816,241783,16758347,16748418,9487,8532,7349,2670,Tag0,unknown
1545011815819,0,66,1.4501953125E-5,38,43,72,1290816,241783,16758347,16748418,9487,8532,7349,2670,Tag0,unknown
1545011815819,0,65,1.42822265625E-5,38,43,72,1290816,241783,16758347,16748418,9487,8532,7349,2670,Tag0,unknown
1545011815820,0,26,5.712890625E-6,38,43,72,1290816,241783,16758347,16748418,9487,8532,7349,2670,Tag0,unknown
1545011815820,0,0,0.0,38,43,72,1290816,241783,16758347,16748418,9487,8532,7349,2670,Tag0,unknown
1545011815820,0,18,3.955078125E-6,38,43,72,1290816,241783,16758347,16748418,9487,8532,7349,2670,Tag0,unknown
1545011815820,0,64,1.40625E-5,38,43,72,1290816,241783,16758347,16748418,9487,8532,7349,2670,Tag0,unknown
1545011815835,0,67,1.4721679687500002E-5,38,43,72,1290816,241783,16758347,16748418,9487,8532,7349,2670,Tag0,unknown
1545011815835,0,40,8.7890625E-6,38,43,72,1290816,241783,16758347,16748418,9487,8532,7349,2670,Tag0,unknown
1545011815835,0,26,5.712890625E-6,38,43,72,1290816,241783,16758347,16748418,9487,8532,7349,2670,Tag0,unknown
1545011815836,0,48,1.0546875E-5,38,43,72,1290816,241783,16758347,16748418,9487,8532,7349,2670,Tag0,unknown
1545011815836,0,87,1.91162109375E-5,38,43,72,1290816,241783,16758347,16748418,9487,8532,7349,2670,Tag0,unknown
1545011815836,0,99,2.1752929687500003E-5,38,43,72,1290816,241783,16758347,16748418,9487,8532,7349,2670,Tag0,unknown
1545011815836,0,69,1.51611328125E-5,38,43,72,1290816,241783,16758347,16748418,9487,8532,7349,2670,Tag0,unknown
1545011815836,0,42,9.228515625000002E-6,38,43,72,1290816,241783,16758347,16748418,9487,8532,7349,2670,Tag0,unknown
1545011815852,0,54,1.1865234375000001E-5,38,43,72,1290816,241783,16758347,16748418,9487,8532,7349,2670,Tag0,unknown
1545011815852,0,84,1.8457031250000004E-5,38,43,72,1290816,241783,16758347,16748418,9487,8532,7349,2670,Tag0,unknown
1545011815852,0,83,1.82373046875E-5,38,43,72,1290816,241783,16758347,16748418,9487,8532,7349,2670,Tag0,unknown
1545011815852,0,40,8.7890625E-6,38,43,72,1290816,241783,16758347,16748418,9487,8532,7349,2670,Tag0,unknown
1545011815853,0,8,1.7578125E-6,38,43,72,1290816,241783,16758347,16748418,9487,8532,7349,2670,Tag0,unknown
1545011815853,0,25,5.4931640625E-6,38,43,72,1290816,241783,16758347,16748418,9487,8532,7349,2670,Tag0,unknown
1545011815853,0,72,1.58203125E-5,38,43,72,1290816,241783,16758347,16748418,9487,8532,7349,2670,Tag0,unknown
1545011815853,0,96,2.109375E-5,38,43,72,1290816,241783,16758347,16748418,9487,8532,7349,2670,Tag0,unknown
1545011815853,0,68,1.4941406250000001E-5,38,43,72,1290816,241783,16758347,16748418,9487,8532,7349,2670,Tag0,unknown
1545011815868,0,28,6.15234375E-6,38,43,72,1290816,241783,16758347,16748418,9487,8532,7349,2670,Tag0,unknown
1545011815868,0,28,6.15234375E-6,38,43,72,1290816,241783,16758347,16748418,9487,8532,7349,2670,Tag0,unknown
1545011815869,0,74,1.6259765625E-5,38,43,72,1290816,241783,16758347,16748418,9487,8532,7349,2670,Tag0,unknown
1545011815869,0,115,2.52685546875E-5,38,43,72,1290816,241783,16758347,16748418,9487,8532,7349,2670,Tag0,unknown
1545011815885,0,92,2.021484375E-5,38,43,72,1290816,241783,16758347,16748418,9487,8532,7349,2670,Tag0,unknown
1545011815886,0,41,9.008789062499999E-6,38,43,72,1290816,241783,16758347,16748418,9487,8532,7349,2670,Tag0,unknown
1545011815886,0,24,5.2734375E-6,38,43,72,1290816,241783,16758347,16748418,9487,8532,7349,2670,Tag0,unknown
1545011815886,0,66,1.4501953125E-5,38,43,72,1290816,241783,16758347,16748418,9487,8532,7349,2670,Tag0,unknown
1545011815886,0,100,2.197265625E-5,38,43,72,1290816,241783,16758347,16748418,9487,8532,7349,2670,Tag0,unknown
1545011815887,0,73,1.6040039062500002E-5,38,43,72,1290816,241783,16758347,16748418,9487,8532,7349,2670,Tag0,unknown
1545011815887,0,13,2.8564453125E-6,38,43,72,1290816,241783,16758347,16748418,9487,8532,7349,2670,Tag0,unknown
1545011815887,0,-281,-6.17431640625E-5,38,43,72,1290816,241783,16758347,16748418,9487,8532,7349,2670,Tag0,unknown
1545011815887,0,-275,-6.04248046875E-5,38,43,72,1290816,241783,16758347,16748418,9487,8532,7349,2670,Tag0,unknown
1545011815887,0,24,5.2734375E-6,38,43,72,1290816,241783,16758347,16748418,9487,8532,7349,2670,Tag0,unknown
1545011815887,0,43,9.448242187500001E-6,38,43,72,1290816,241783,16758347,16748418,9487,8532,7349,2670,Tag0,unknown
1545011815887,0,37,8.1298828125E-6,38,43,72,1290816,241783,16758347,16748418,9487,8532,7349,2670,Tag0,unknown
1545011815901,0,35,7.6904296875E-6,38,43,72,1290816,241783,16758347,16748418,9487,8532,7349,2670,Tag0,unknown
1545011815902,0,51,1.1206054687499999E-5,38,43,72,1290816,241783,16758347,16748418,9487,8532,7349,2670,Tag0,unknown
1545011815902,0,59,1.29638671875E-5,38,43,72,1290816,241783,16758347,16748418,9487,8532,7349,2670,Tag0,unknown
1545011815902,0,43,9.448242187500001E-6,38,43,72,1290816,241783,16758347,16748418,9487,8532,7349,2670,Tag0,unknown
1545011815902,0,18,3.955078125E-6,38,43,72,1290816,241783,16758347,16748418,9487,8532,7349,2670,Tag0,unknown
1545011815903,0,6,1.318359375E-6,38,43,72,1290816,241783,16758347,16748418,9487,8532,7349,2670,Tag0,unknown
1545011815903,0,26,5.712890625E-6,38,43,72,1290816,241783,16758347,16748418,9487,8532,7349,2670,Tag0,unknown
1545011815903,0,51,1.1206054687499999E-5,38,43,72,1290816,241783,16758347,16748418,9487,8532,7349,2670,Tag0,unknown
1545011815903,0,49,1.07666015625E-5,38,43,72,1290816,241783,16758347,16748418,9487,8532,7349,2670,Tag0,unknown
1545011815903,0,21,4.614257812500001E-6,38,43,72,1290816,241783,16758347,16748418,9487,8532,7349,2670,Tag0,unknown
1545011815918,0,-258,-5.6689453125000004E-5,38,43,72,1290816,241783,16758347,16748418,9487,8532,7349,2670,Tag0,unknown
1545011815919,0,7,1.5380859375E-6,38,43,72,1290816,241783,16758347,16748418,9487,8532,7349,2670,Tag0,unknown
1545011815919,0,41,9.008789062499999E-6,38,43,72,1290816,241783,16758347,16748418,9487,8532,7349,2670,Tag0,unknown
1545011815919,0,54,1.1865234375000001E-5,38,43,72,1290816,241783,16758347,16748418,9487,8532,7349,2670,Tag0,unknown
1545011815919,0,41,9.008789062499999E-6,38,43,72,1290816,241783,16758347,16748418,9487,8532,7349,2670,Tag0,unknown
1545011815963,0,17,3.7353515625000003E-6,38,43,72,1290816,241783,16758347,16748418,9487,8532,7349,2670,Tag0,unknown
1545011815968,0,9,1.9775390625E-6,38,43,72,1290816,241783,16758347,16748418,9487,8532,7349,2670,Tag0,unknown
1545011815968,0,33,7.2509765625E-6,38,43,72,1290816,241783,16758347,16748418,9487,8532,7349,2670,Tag0,unknown
1545011815985,0,44,9.66796875E-6,38,43,72,1290816,241783,16758347,16748418,9487,8532,7349,2670,Tag0,unknown
1545011815985,0,24,5.2734375E-6,38,43,72,1290816,241783,16758347,16748418,9487,8532,7349,2670,Tag0,unknown
1545011815985,0,-263,-5.7788085937500005E-5,38,43,72,1290816,241783,16758347,16748418,9487,8532,7349,2670,Tag0,unknown
1545011815986,0,-265,-5.82275390625E-5,38,43,72,1290816,241783,16758347,16748418,9487,8532,7349,2670,Tag0,unknown
1545011815986,0,26,5.712890625E-6,38,43,72,1290816,241783,16758347,16748418,9487,8532,7349,2670,Tag0,unknown
1545011815986,0,52,1.142578125E-5,38,43,72,1290816,241783,16758347,16748418,9487,8532,7349,2670,Tag0,unknown
1545011815986,0,34,7.4707031250000005E-6,38,43,72,1290816,241783,16758347,16748418,9487,8532,7349,2670,Tag0,unknown
1545011815986,0,-262,-5.7568359375E-5,38,43,72,1290816,241783,16758347,16748418,9487,8532,7349,2670,Tag0,unknown
1545011815986,0,-278,-6.108398437500001E-5,38,43,72,1290816,241783,16758347,16748418,9487,8532,7349,2670,Tag0,unknown
1545011815986,0,4,8.7890625E-7,38,43,72,1290816,241783,16758347,16748418,9487,8532,7349,2670,Tag0,unknown
1545011815987,0,28,6.15234375E-6,38,43,72,1290816,241783,16758347,16748418,9487,8532,7349,2670,Tag0,unknown
1545011815987,0,6,1.318359375E-6,38,43,72,1290816,241783,16758347,16748418,9487,8532,7349,2670,Tag0,unknown
1545011815987,0,-294,-6.4599609375E-5,38,43,72,1290816,241783,16758347,16748418,9487,8532,7349,2670,Tag0,unknown
1545011815987,0,-300,-6.591796875E-5,38,43,72,1290816,241783,16758347,16748418,9487,8532,7349,2670,Tag0,unknown
1545011815987,0,-262,-5.7568359375E-5,38,43,72,1290816,241783,16758347,16748418,9487,8532,7349,2670,Tag0,unknown
1545011815987,0,22,4.833984375E-6,38,43,72,1290816,241783,16758347,16748418,9487,8532,7349,2670,Tag0,unknown
1545011815987,0,-259,-5.69091796875E-5,38,43,72,1290816,241783,16758347,16748418,9487,8532,7349,2670,Tag0,unknown
1545011815988,0,-302,-6.6357421875E-5,38,43,72,1290816,241783,16758347,16748418,9487,8532,7349,2670,Tag0,unknown
1545011815988,0,-314,-6.8994140625E-5,38,43,72,1290816,241783,16758347,16748418,9487,8532,7349,2670,Tag0,unknown
1545011815988,0,-283,-6.218261718750001E-5,38,43,72,1290816,241783,16758347,16748418,9487,8532,7349,2670,Tag0,unknown
1545011815988,0,9,1.9775390625E-6,38,43,72,1290816,241783,16758347,16748418,9487,8532,7349,2670,Tag0,unknown
1545011815988,0,5,1.0986328125E-6,38,43,72,1290816,241783,16758347,16748418,9487,8532,7349,2670,Tag0,unknown
1545011815989,0,-279,-6.13037109375E-5,38,43,72,1290816,241783,16758347,16748418,9487,8532,7349,2670,Tag0,unknown
1545011815991,0,-289,-6.35009765625E-5,38,43,72,1290816,241783,16758347,16748418,9487,8532,7349,2670,Tag0,unknown
1545011815991,0,1,2.197265625E-7,38,43,72,1290816,241783,16758347,16748418,9487,8532,7349,2670,Tag0,unknown
1545011815991,0,28,6.15234375E-6,38,43,72,1290816,241783,16758347,16748418,9487,8532,7349,2670,Tag0,unknown
1545011815991,0,12,2.63671875E-6,38,43,72,1290816,241783,16758347,16748418,9487,8532,7349,2670,Tag0,unknown
1545011815992,0,-275,-6.04248046875E-5,38,43,72,1290816,241783,16758347,16748418,9487,8532,7349,2670,Tag0,unknown
1545011815992,0,-289,-6.35009765625E-5,38,43,72,1290816,241783,16758347,16748418,9487,8532,7349,2670,Tag0,unknown
1545011816028,0,-265,-5.82275390625E-5,38,43,72,1290816,241783,16758347,16748418,9487,8532,7349,2670,Tag0,unknown
1545011816035,0,26,5.712890625E-6,38,43,72,1290816,241783,16758347,16748418,9487,8532,7349,2670,Tag0,unknown
1545011816035,0,16,3.515625E-6,38,43,72,1290816,241783,16758347,16748418,9487,8532,7349,2670,Tag0,unknown
1545011816055,0,-274,-6.0205078124999997E-5,38,43,72,1290816,241783,16758347,16748418,9487,8532,7349,2670,Tag0,unknown
1545011816056,0,-280,-6.15234375E-5,38,43,72,1290816,241783,16758347,16748418,9487,8532,7349,2670,Tag0,unknown
1545011816057,0,5,1.0986328125E-6,38,43,72,1290816,241783,16758347,16748418,9487,8532,7349,2670,Tag0,unknown
1545011816058,0,43,9.448242187500001E-6,38,43,72,1290816,241783,16758347,16748418,9487,8532,7349,2670,Tag0,unknown
1545011816074,0,54,1.1865234375000001E-5,34,41,72,21871,16748962,16943,8364,8498,4691,3834,1839,Tag0,unknown
1545011816074,0,26,5.712890625E-6,34,41,72,21871,16748962,16943,8364,8498,4691,3834,1839,Tag0,unknown
1545011816075,0,-260,-5.712890625E-5,34,41,72,21871,16748962,16943,8364,8498,4691,3834,1839,Tag0,unknown
1545011816075,0,-257,-5.64697265625E-5,34,41,72,21871,16748962,16943,8364,8498,4691,3834,1839,Tag0,unknown
1545011816075,0,36,7.91015625E-6,34,41,72,21871,16748962,16943,8364,8498,4691,3834,1839,Tag0,unknown
1545011816076,0,40,8.7890625E-6,34,41,72,21871,16748962,16943,8364,8498,4691,3834,1839,Tag0,unknown
1545011816076,0,1,2.197265625E-7,34,41,72,21871,16748962,16943,8364,8498,4691,3834,1839,Tag0,unknown
1545011816076,0,-298,-6.5478515625E-5,34,41,72,21871,16748962,16943,8364,8498,4691,3834,1839,Tag0,unknown
1545011816076,0,-298,-6.5478515625E-5,34,41,72,21871,16748962,16943,8364,8498,4691,3834,1839,Tag0,unknown
1545011816077,0,3,6.591796875E-7,34,41,72,21871,16748962,16943,8364,8498,4691,3834,1839,Tag0,unknown
1545011816077,0,21,4.614257812500001E-6,34,41,72,21871,16748962,16943,8364,8498,4691,3834,1839,Tag0,unknown
1545011816077,0,-262,-5.7568359375E-5,34,41,72,21871,16748962,16943,8364,8498,4691,3834,1839,Tag0,unknown
1545011816077,0,-285,-6.26220703125E-5,34,41,72,21871,16748962,16943,8364,8498,4691,3834,1839,Tag0,unknown
1545011816078,0,-277,-6.0864257812500005E-5,34,41,72,21871,16748962,16943,8364,8498,4691,3834,1839,Tag0,unknown
1545011816078,0,11,2.4169921875E-6,34,41,72,21871,16748962,16943,8364,8498,4691,3834,1839,Tag0,unknown
1545011816078,0,32,7.03125E-6,34,41,72,21871,16748962,16943,8364,8498,4691,3834,1839,Tag0,unknown
1545011816079,0,10,2.197265625E-6,34,41,72,21871,16748962,16943,8364,8498,4691,3834,1839,Tag0,unknown
1545011816079,0,-279,-6.13037109375E-5,34,41,72,21871,16748962,16943,8364,8498,4691,3834,1839,Tag0,unknown
1545011816079,0,-285,-6.26220703125E-5,34,41,72,21871,16748962,16943,8364,8498,4691,3834,1839,Tag0,unknown
1545011816079,0,-261,-5.73486328125E-5,34,41,72,21871,16748962,16943,8364,8498,4691,3834,1839,Tag0,unknown
1545011816080,0,8,1.7578125E-6,34,41,72,21871,16748962,16943,8364,8498,4691,3834,1839,Tag0,unknown
1545011816080,0,-263,-5.7788085937500005E-5,34,41,72,21871,16748962,16943,8364,8498,4691,3834,1839,Tag0,unknown
1545011816080,0,-282,-6.1962890625E-5,34,41,72,21871,16748962,16943,8364,8498,4691,3834,1839,Tag0,unknown
1545011816080,0,-275,-6.04248046875E-5,34,41,72,21871,16748962,16943,8364,8498,4691,3834,1839,Tag0,unknown
1545011816081,0,17,3.7353515625000003E-6,34,41,72,21871,16748962,16943,8364,8498,4691,3834,1839,Tag0,unknown
1545011816081,0,48,1.0546875E-5,34,41,72,21871,16748962,16943,8364,8498,4691,3834,1839,Tag0,unknown
1545011816121,0,43,9.448242187500001E-6,34,41,72,21871,16748962,16943,8364,8498,4691,3834,1839,Tag0,unknown
1545011816122,0,23,5.0537109375E-6,34,41,72,21871,16748962,16943,8364,8498,4691,3834,1839,Tag0,unknown
1545011816122,0,13,2.8564453125E-6,34,41,72,21871,16748962,16943,8364,8498,4691,3834,1839,Tag0,unknown
1545011816122,0,27,5.9326171875000005E-6,34,41,72,21871,16748962,16943,8364,8498,4691,3834,1839,Tag0,unknown
1545011816123,0,55,1.20849609375E-5,34,41,72,21871,16748962,16943,8364,8498,4691,3834,1839,Tag0,unknown
1545011816123,0,71,1.56005859375E-5,34,41,72,21871,16748962,16943,8364,8498,4691,3834,1839,Tag0,unknown
1545011816123,0,59,1.29638671875E-5,34,41,72,21871,16748962,16943,8364,8498,4691,3834,1839,Tag0,unknown
1545011816123,0,28,6.15234375E-6,34,41,72,21871,16748962,16943,8364,8498,4691,3834,1839,Tag0,unknown
1545011816123,0,10,2.197265625E-6,34,41,72,21871,16748962,16943,8364,8498,4691,3834,1839,Tag0,unknown
1545011816124,0,18,3.955078125E-6,34,41,72,21871,16748962,16943,8364,8498,4691,3834,1839,Tag0,unknown
1545011816124,0,11,2.4169921875E-6,34,41,72,21871,16748962,16943,8364,8498,4691,3834,1839,Tag0,unknown
1545011816124,0,-273,-5.998535156250001E-5,34,41,72,21871,16748962,16943,8364,8498,4691,3834,1839,Tag0,unknown
1545011816124,0,-282,-6.1962890625E-5,34,41,72,21871,16748962,16943,8364,8498,4691,3834,1839,Tag0,unknown
1545011816125,0,2,4.39453125E-7,34,41,72,21871,16748962,16943,8364,8498,4691,3834,1839,Tag0,unknown
1545011816125,0,35,7.6904296875E-6,34,41,72,21871,16748962,16943,8364,8498,4691,3834,1839,Tag0,unknown
1545011816125,0,36,7.91015625E-6,34,41,72,21871,16748962,16943,8364,8498,4691,3834,1839,Tag0,unknown
1545011816125,0,12,2.63671875E-6,34,41,72,21871,16748962,16943,8364,8498,4691,3834,1839,Tag0,unknown
1545011816126,0,-262,-5.7568359375E-5,34,41,72,21871,16748962,16943,8364,8498,4691,3834,1839,Tag0,unknown
1545011816126,0,16,3.515625E-6,34,41,72,21871,16748962,16943,8364,8498,4691,3834,1839,Tag0,unknown
1545011816127,0,68,1.4941406250000001E-5,34,41,72,21871,16748962,16943,8364,8498,4691,3834,1839,Tag0,unknown
1545011816127,0,83,1.82373046875E-5,34,41,72,21871,16748962,16943,8364,8498,4691,3834,1839,Tag0,unknown
1545011816127,0,65,1.42822265625E-5,34,41,72,21871,16748962,16943,8364,8498,4691,3834,1839,Tag0,unknown
1545011816127,0,39,8.5693359375E-6,34,41,72,21871,16748962,16943,8364,8498,4691,3834,1839,Tag0,unknown
1545011816127,0,37,8.1298828125E-6,34,41,72,21871,16748962,16943,8364,8498,4691,3834,1839,Tag0,unknown
1545011816128,0,59,1.29638671875E-5,34,41,72,21871,16748962,16943,8364,8498,4691,3834,1839,Tag0,unknown
1545011816128,0,56,1.23046875E-5,34,41,72,21871,16748962,16943,8364,8498,4691,3834,1839,Tag0,unknown
1545011816128,0,11,2.4169921875E-6,34,41,72,21871,16748962,16943,8364,8498,4691,3834,1839,Tag0,unknown
1545011816128,0,-285,-6.26220703125E-5,34,41,72,21871,16748962,16943,8364,8498,4691,3834,1839,Tag0,unknown
1545011816128,0,-286,-6.2841796875E-5,34,41,72,21871,16748962,16943,8364,8498,4691,3834,1839,Tag0,unknown
1545011816129,0,9,1.9775390625E-6,34,41,72,21871,16748962,16943,8364,8498,4691,3834,1839,Tag0,unknown
1545011816129,0,39,8.5693359375E-6,34,41,72,21871,16748962,16943,8364,8498,4691,3834,1839,Tag0,unknown
1545011816129,0,20,4.39453125E-6,34,41,72,21871,16748962,16943,8364,8498,4691,3834,1839,Tag0,unknown
1545011816129,0,-265,-5.82275390625E-5,34,41,72,21871,16748962,16943,8364,8498,4691,3834,1839,Tag0,unknown
1545011816129,0,-259,-5.69091796875E-5,34,41,72,21871,16748962,16943,8364,8498,4691,3834,1839,Tag0,unknown
1545011816130,0,42,9.228515625000002E-6,34,41,72,21871,16748962,16943,8364,8498,4691,3834,1839,Tag0,unknown
1545011816130,0,74,1.6259765625E-5,34,41,72,21871,16748962,16943,8364,8498,4691,3834,1839,Tag0,unknown
1545011816130,0,60,1.318359375E-5,34,41,72,21871,16748962,16943,8364,8498,4691,3834,1839,Tag0,unknown
1545011816131,0,24,5.2734375E-6,34,41,72,21871,16748962,16943,8364,8498,4691,3834,1839,Tag0,unknown
1545011816131,0,12,2.63671875E-6,34,41,72,21871,16748962,16943,8364,8498,4691,3834,1839,Tag0,unknown
1545011816136,0,51,1.1206054687499999E-5,34,41,72,21871,16748962,16943,8364,8498,4691,3834,1839,Tag0,unknown
1545011816136,0,88,1.93359375E-5,34,41,72,21871,16748962,16943,8364,8498,4691,3834,1839,Tag0,unknown
1545011816136,0,75,1.64794921875E-5,34,41,72,21871,16748962,16943,8364,8498,4691,3834,1839,Tag0,unknown
1545011816139,0,33,7.2509765625E-6,34,41,72,21871,16748962,16943,8364,8498,4691,3834,1839,Tag0,unknown
1545011816139,0,7,1.5380859375E-6,34,41,72,21871,16748962,16943,8364,8498,4691,3834,1839,Tag0,unknown
1545011816139,0,44,9.66796875E-6,34,41,72,21871,16748962,16943,8364,8498,4691,3834,1839,Tag0,unknown
1545011816139,0,98,2.1533203125E-5,34,41,72,21871,16748962,16943,8364,8498,4691,3834,1839,Tag0,unknown
1545011816140,0,89,1.95556640625E-5,34,41,72,21871,16748962,16943,8364,8498,4691,3834,1839,Tag0,unknown
1545011816140,0,39,8.5693359375E-6,34,41,72,21871,16748962,16943,8364,8498,4691,3834,1839,Tag0,unknown
1545011816152,0,12,2.63671875E-6,34,41,72,21871,16748962,16943,8364,8498,4691,3834,1839,Tag0,unknown
1545011816152,0,41,9.008789062499999E-6,34,41,72,21871,16748962,16943,8364,8498,4691,3834,1839,Tag0,unknown
1545011816172,0,86,1.8896484375000003E-5,34,41,72,21871,16748962,16943,8364,8498,4691,3834,1839,Tag0,unknown
1545011816175,0,93,2.04345703125E-5,34,41,72,21871,16748962,16943,8364,8498,4691,3834,1839,Tag0,unknown
1545011816176,0,69,1.51611328125E-5,34,41,72,21871,16748962,16943,8364,8498,4691,3834,1839,Tag0,unknown
1545011816176,0,52,1.142578125E-5,34,41,72,21871,16748962,16943,8364,8498,4691,3834,1839,Tag0,unknown
1545011816176,0,71,1.56005859375E-5,34,41,72,21871,16748962,16943,8364,8498,4691,3834,1839,Tag0,unknown
1545011816185,0,100,2.197265625E-5,34,41,72,21871,16748962,16943,8364,8498,4691,3834,1839,Tag0,unknown
1545011816186,0,92,2.021484375E-5,34,41,72,21871,16748962,16943,8364,8498,4691,3834,1839,Tag0,unknown
1545011816186,0,51,1.1206054687499999E-5,34,41,72,21871,16748962,16943,8364,8498,4691,3834,1839,Tag0,unknown
1545011816186,0,10,2.197265625E-6,34,41,72,21871,16748962,16943,8364,8498,4691,3834,1839,Tag0,unknown
1545011816186,0,27,5.9326171875000005E-6,34,41,72,21871,16748962,16943,8364,8498,4691,3834,1839,Tag0,unknown
1545011816187,0,81,1.77978515625E-5,34,41,72,21871,16748962,16943,8364,8498,4691,3834,1839,Tag0,unknown
1545011816187,0,91,1.99951171875E-5,34,41,72,21871,16748962,16943,8364,8498,4691,3834,1839,Tag0,unknown
1545011816187,0,53,1.1645507812500002E-5,34,41,72,21871,16748962,16943,8364,8498,4691,3834,1839,Tag0,unknown
1545011816187,0,17,3.7353515625000003E-6,34,41,72,21871,16748962,16943,8364,8498,4691,3834,1839,Tag0,unknown
1545011816187,0,29,6.3720703125E-6,34,41,72,21871,16748962,16943,8364,8498,4691,3834,1839,Tag0,unknown
1545011816188,0,73,1.6040039062500002E-5,34,41,72,21871,16748962,16943,8364,8498,4691,3834,1839,Tag0,unknown
1545011816188,0,85,1.86767578125E-5,34,41,72,21871,16748962,16943,8364,8498,4691,3834,1839,Tag0,unknown
1545011816188,0,59,1.29638671875E-5,34,41,72,21871,16748962,16943,8364,8498,4691,3834,1839,Tag0,unknown
1545011816189,0,39,8.5693359375E-6,34,41,72,21871,16748962,16943,8364,8498,4691,3834,1839,Tag0,unknown
1545011816189,0,39,8.5693359375E-6,34,41,72,21871,16748962,16943,8364,8498,4691,3834,1839,Tag0,unknown
1545011816189,0,57,1.2524414062500001E-5,34,41,72,21871,16748962,16943,8364,8498,4691,3834,1839,Tag0,unknown
1545011816189,0,74,1.6259765625E-5,34,41,72,21871,16748962,16943,8364,8498,4691,3834,1839,Tag0,unknown
1545011816189,0,66,1.4501953125E-5,34,41,72,21871,16748962,16943,8364,8498,4691,3834,1839,Tag0,unknown
1545011816190,0,50,1.0986328125E-5,34,41,72,21871,16748962,16943,8364,8498,4691,3834,1839,Tag0,unknown
1545011816190,0,54,1.1865234375000001E-5,34,41,72,21871,16748962,16943,8364,8498,4691,3834,1839,Tag0,unknown
1545011816202,0,89,1.95556640625E-5,34,41,72,21871,16748962,16943,8364,8498,4691,3834,1839,Tag0,unknown
1545011816203,0,115,2.52685546875E-5,34,41,72,21871,16748962,16943,8364,8498,4691,3834,1839,Tag0,unknown
1545011816203,0,97,2.13134765625E-5,34,41,72,21871,16748962,16943,8364,8498,4691,3834,1839,Tag0,unknown
1545011816253,0,65,1.42822265625E-5,34,41,72,21871,16748962,16943,8364,8498,4691,3834,1839,Tag0,unknown
1545011816253,0,57,1.2524414062500001E-5,34,41,72,21871,16748962,16943,8364,8498,4691,3834,1839,Tag0,unknown
1545011816253,0,89,1.95556640625E-5,34,41,72,21871,16748962,16943,8364,8498,4691,3834,1839,Tag0,unknown
1545011816253,0,115,2.52685546875E-5,34,41,72,21871,16748962,16943,8364,8498,4691,3834,1839,Tag0,unknown
1545011816254,0,98,2.1533203125E-5,34,41,72,21871,16748962,16943,8364,8498,4691,3834,1839,Tag0,unknown
1545011816254,0,55,1.20849609375E-5,34,41,72,21871,16748962,16943,8364,8498,4691,3834,1839,Tag0,unknown
1545011816254,0,44,9.66796875E-6,34,41,72,21871,16748962,16943,8364,8498,4691,3834,1839,Tag0,unknown
1545011816255,0,84,1.8457031250000004E-5,34,41,72,21871,16748962,16943,8364,8498,4691,3834,1839,Tag0,unknown
1545011816255,0,109,2.39501953125E-5,34,41,72,21871,16748962,16943,8364,8498,4691,3834,1839,Tag0,unknown
1545011816255,0,88,1.93359375E-5,34,41,72,21871,16748962,16943,8364,8498,4691,3834,1839,Tag0,unknown
1545011816255,0,45,9.8876953125E-6,34,41,72,21871,16748962,16943,8364,8498,4691,3834,1839,Tag0,unknown
1545011816255,0,32,7.03125E-6,34,41,72,21871,16748962,16943,8364,8498,4691,3834,1839,Tag0,unknown
1545011816255,0,55,1.20849609375E-5,34,41,72,21871,16748962,16943,8364,8498,4691,3834,1839,Tag0,unknown
1545011816256,0,76,1.669921875E-5,34,41,72,21871,16748962,16943,8364,8498,4691,3834,1839,Tag0,unknown
1545011816256,0,64,1.40625E-5,34,41,72,21871,16748962,16943,8364,8498,4691,3834,1839,Tag0,unknown
1545011816256,0,33,7.2509765625E-6,34,41,72,21871,16748962,16943,8364,8498,4691,3834,1839,Tag0,unknown
1545011816256,0,22,4.833984375E-6,34,41,72,21871,16748962,16943,8364,8498,4691,3834,1839,Tag0,unknown
1545011816256,0,49,1.07666015625E-5,34,41,72,21871,16748962,16943,8364,8498,4691,3834,1839,Tag0,unknown
1545011816256,0,73,1.6040039062500002E-5,34,41,72,21871,16748962,16943,8364,8498,4691,3834,1839,Tag0,unknown
1545011816257,0,48,1.0546875E-5,34,41,72,21871,16748962,16943,8364,8498,4691,3834,1839,Tag0,unknown
1545011816257,0,-265,-5.82275390625E-5,34,41,72,21871,16748962,16943,8364,8498,4691,3834,1839,Tag0,unknown
1545011816257,0,-289,-6.35009765625E-5,34,41,72,21871,16748962,16943,8364,8498,4691,3834,1839,Tag0,unknown
1545011816257,0,-265,-5.82275390625E-5,34,41,72,21871,16748962,16943,8364,8498,4691,3834,1839,Tag0,unknown
1545011816257,0,34,7.4707031250000005E-6,34,41,72,21871,16748962,16943,8364,8498,4691,3834,1839,Tag0,unknown
1545011816257,0,45,9.8876953125E-6,34,41,72,21871,16748962,16943,8364,8498,4691,3834,1839,Tag0,unknown
1545011816257,0,9,1.9775390625E-6,34,41,72,21871,16748962,16943,8364,8498,4691,3834,1839,Tag0,unknown
1545011816258,0,-274,-6.0205078124999997E-5,34,41,72,21871,16748962,16943,8364,8498,4691,3834,1839,Tag0,unknown
1545011816258,0,7,1.5380859375E-6,34,41,72,21871,16748962,16943,8364,8498,4691,3834,1839,Tag0,unknown
1545011816258,0,51,1.1206054687499999E-5,34,41,72,21871,16748962,16943,8364,8498,4691,3834,1839,Tag0,unknown
1545011816258,0,55,1.20849609375E-5,34,41,72,21871,16748962,16943,8364,8498,4691,3834,1839,Tag0,unknown
1545011816269,0,29,6.3720703125E-6,34,41,72,21871,16748962,16943,8364,8498,4691,3834,1839,Tag0,unknown
1545011816305,0,5,1.0986328125E-6,34,41,72,21871,16748962,16943,8364,8498,4691,3834,1839,Tag0,unknown
1545011816322,0,6,1.318359375E-6,34,41,72,21871,16748962,16943,8364,8498,4691,3834,1839,Tag0,unknown
1545011816322,0,45,9.8876953125E-6,34,41,72,21871,16748962,16943,8364,8498,4691,3834,1839,Tag0,unknown
1545011816322,0,77,1.69189453125E-5,34,41,72,21871,16748962,16943,8364,8498,4691,3834,1839,Tag0,unknown
1545011816323,0,72,1.58203125E-5,34,41,72,21871,16748962,16943,8364,8498,4691,3834,1839,Tag0,unknown
1545011816323,0,54,1.1865234375000001E-5,34,41,72,21871,16748962,16943,8364,8498,4691,3834,1839,Tag0,unknown
1545011816323,0,51,1.1206054687499999E-5,34,41,72,21871,16748962,16943,8364,8498,4691,3834,1839,Tag0,unknown
1545011816324,0,74,1.6259765625E-5,34,41,72,21871,16748962,16943,8364,8498,4691,3834,1839,Tag0,unknown
1545011816324,0,93,2.04345703125E-5,34,41,72,21871,16748962,16943,8364,8498,4691,3834,1839,Tag0,unknown
1545011816324,0,72,1.58203125E-5,34,41,72,21871,16748962,16943,8364,8498,4691,3834,1839,Tag0,unknown
1545011816324,0,34,7.4707031250000005E-6,34,41,72,21871,16748962,16943,8364,8498,4691,3834,1839,Tag0,unknown
1545011816324,0,24,5.2734375E-6,34,41,72,21871,16748962,16943,8364,8498,4691,3834,1839,Tag0,unknown
1545011816325,0,52,1.142578125E-5,34,41,72,21871,16748962,16943,8364,8498,4691,3834,1839,Tag0,unknown
1545011816325,0,69,1.51611328125E-5,34,41,72,21871,16748962,16943,8364,8498,4691,3834,1839,Tag0,unknown
1545011816325,0,45,9.8876953125E-6,34,41,72,21871,16748962,16943,8364,8498,4691,3834,1839,Tag0,unknown
1545011816325,0,18,3.955078125E-6,34,41,72,21871,16748962,16943,8364,8498,4691,3834,1839,Tag0,unknown
1545011816325,0,12,2.63671875E-6,34,41,72,21871,16748962,16943,8364,8498,4691,3834,1839,Tag0,unknown
1545011816326,0,43,9.448242187500001E-6,34,41,72,21871,16748962,16943,8364,8498,4691,3834,1839,Tag0,unknown
1545011816326,0,76,1.669921875E-5,34,41,72,21871,16748962,16943,8364,8498,4691,3834,1839,Tag0,unknown
1545011816326,0,67,1.4721679687500002E-5,34,41,72,21871,16748962,16943,8364,8498,4691,3834,1839,Tag0,unknown
1545011816326,0,27,5.9326171875000005E-6,34,41,72,21871,16748962,16943,8364,8498,4691,3834,1839,Tag0,unknown
1545011816326,0,7,1.5380859375E-6,34,41,72,21871,16748962,16943,8364,8498,4691,3834,1839,Tag0,unknown
1545011816327,0,20,4.39453125E-6,34,41,72,21871,16748962,16943,8364,8498,4691,3834,1839,Tag0,unknown
1545011816327,0,38,8.349609375E-6,34,41,72,21871,16748962,16943,8364,8498,4691,3834,1839,Tag0,unknown
1545011816327,0,33,7.2509765625E-6,34,41,72,21871,16748962,16943,8364,8498,4691,3834,1839,Tag0,unknown
1545011816327,0,6,1.318359375E-6,34,41,72,21871,16748962,16943,8364,8498,4691,3834,1839,Tag0,unknown
1545011816327,0,-258,-5.6689453125000004E-5,34,41,72,21871,16748962,16943,8364,8498,4691,3834,1839,Tag0,unknown
1545011816328,0,21,4.614257812500001E-6,34,41,72,21871,16748962,16943,8364,8498,4691,3834,1839,Tag0,unknown
1545011816328,0,57,1.2524414062500001E-5,34,41,72,21871,16748962,16943,8364,8498,4691,3834,1839,Tag0,unknown
1545011816328,0,50,1.0986328125E-5,34,41,72,21871,16748962,16943,8364,8498,4691,3834,1839,Tag0,unknown
1545011816328,0,11,2.4169921875E-6,34,41,72,21871,16748962,16943,8364,8498,4691,3834,1839,Tag0,unknown
1545011816328,0,-258,-5.6689453125000004E-5,34,41,72,21871,16748962,16943,8364,8498,4691,3834,1839,Tag0,unknown
1545011816329,0,19,4.1748046875E-6,34,41,72,21871,16748962,16943,8364,8498,4691,3834,1839,Tag0,unknown
1545011816374,0,56,1.23046875E-5,34,41,72,21871,16748962,16943,8364,8498,4691,3834,1839,Tag0,unknown
1545011816375,0,69,1.51611328125E-5,34,41,72,21871,16748962,16943,8364,8498,4691,3834,1839,Tag0,unknown
1545011816386,0,49,1.07666015625E-5,34,41,72,21871,16748962,16943,8364,8498,4691,3834,1839,Tag0,unknown
1545011816386,0,41,9.008789062499999E-6,34,41,72,21871,16748962,16943,8364,8498,4691,3834,1839,Tag0,unknown
1545011816386,0,76,1.669921875E-5,34,41,72,21871,16748962,16943,8364,8498,4691,3834,1839,Tag0,unknown
1545011816387,0,121,2.6586914062500003E-5,34,41,72,21871,16748962,16943,8364,8498,4691,3834,1839,Tag0,unknown
1545011816387,0,123,2.70263671875E-5,34,41,72,21871,16748962,16943,8364,8498,4691,3834,1839,Tag0,unknown
1545011816387,0,81,1.77978515625E-5,34,41,72,21871,16748962,16943,8364,8498,4691,3834,1839,Tag0,unknown
1545011816387,0,42,9.228515625000002E-6,34,41,72,21871,16748962,16943,8364,8498,4691,3834,1839,Tag0,unknown
1545011816387,0,43,9.448242187500001E-6,34,41,72,21871,16748962,16943,8364,8498,4691,3834,1839,Tag0,unknown
1545011816387,0,71,1.56005859375E-5,34,41,72,21871,16748962,16943,8364,8498,4691,3834,1839,Tag0,unknown
1545011816388,0,72,1.58203125E-5,34,41,72,21871,16748962,16943,8364,8498,4691,3834,1839,Tag0,unknown
1545011816388,0,35,7.6904296875E-6,34,41,72,21871,16748962,16943,8364,8498,4691,3834,1839,Tag0,unknown
1545011816388,0,3,6.591796875E-7,34,41,72,21871,16748962,16943,8364,8498,4691,3834,1839,Tag0,unknown
1545011816388,0,11,2.4169921875E-6,34,41,72,21871,16748962,16943,8364,8498,4691,3834,1839,Tag0,unknown
1545011816402,0,55,1.20849609375E-5,34,41,72,21871,16748962,16943,8364,8498,4691,3834,1839,Tag0,unknown
1545011816402,0,74,1.6259765625E-5,34,41,72,21871,16748962,16943,8364,8498,4691,3834,1839,Tag0,unknown
1545011816402,0,45,9.8876953125E-6,34,41,72,21871,16748962,16943,8364,8498,4691,3834,1839,Tag0,unknown
1545011816402,0,0,0.0,34,41,72,21871,16748962,16943,8364,8498,4691,3834,1839,Tag0,unknown
1545011816403,0,-266,-5.8447265625E-5,34,41,72,21871,16748962,16943,8364,8498,4691,3834,1839,Tag0,unknown
1545011816403,0,27,5.9326171875000005E-6,34,41,72,21871,16748962,16943,8364,8498,4691,3834,1839,Tag0,unknown
1545011816403,0,64,1.40625E-5,34,41,72,21871,16748962,16943,8364,8498,4691,3834,1839,Tag0,unknown
1545011816403,0,45,9.8876953125E-6,34,41,72,21871,16748962,16943,8364,8498,4691,3834,1839,Tag0,unknown
1545011816403,0,3,6.591796875E-7,34,41,72,21871,16748962,16943,8364,8498,4691,3834,1839,Tag0,unknown
1545011816403,0,0,0.0,34,41,72,21871,16748962,16943,8364,8498,4691,3834,1839,Tag0,unknown
1545011816404,0,41,9.008789062499999E-6,34,41,72,21871,16748962,16943,8364,8498,4691,3834,1839,Tag0,unknown
1545011816404,0,61,1.34033203125E-5,34,41,72,21871,16748962,16943,8364,8498,4691,3834,1839,Tag0,unknown
1545011816405,0,37,8.1298828125E-6,34,41,72,21871,16748962,16943,8364,8498,4691,3834,1839,Tag0,unknown
1545011816405,0,7,1.5380859375E-6,34,41,72,21871,16748962,16943,8364,8498,4691,3834,1839,Tag0,unknown
1545011816406,0,-258,-5.6689453125000004E-5,34,41,72,21871,16748962,16943,8364,8498,4691,3834,1839,Tag0,unknown
1545011816406,0,17,3.7353515625000003E-6,34,41,72,21871,16748962,16943,8364,8498,4691,3834,1839,Tag0,unknown
1545011816406,0,49,1.07666015625E-5,34,41,72,21871,16748962,16943,8364,8498,4691,3834,1839,Tag0,unknown
1545011816407,0,53,1.1645507812500002E-5,34,41,72,21871,16748962,16943,8364,8498,4691,3834,1839,Tag0,unknown
1545011816407,0,21,4.614257812500001E-6,34,41,72,21871,16748962,16943,8364,8498,4691,3834,1839,Tag0,unknown
1545011816407,0,-258,-5.6689453125000004E-5,34,41,72,21871,16748962,16943,8364,8498,4691,3834,1839,Tag0,unknown
1545011816408,0,20,4.39453125E-6,34,41,72,21871,16748962,16943,8364,8498,4691,3834,1839,Tag0,unknown
1545011816408,0,67,1.4721679687500002E-5,34,41,72,21871,16748962,16943,8364,8498,4691,3834,1839,Tag0,unknown
1545011816408,0,85,1.86767578125E-5,34,41,72,21871,16748962,16943,8364,8498,4691,3834,1839,Tag0,unknown
1545011816420,0,69,1.51611328125E-5,34,41,72,21871,16748962,16943,8364,8498,4691,3834,1839,Tag0,unknown
1545011816421,0,51,1.1206054687499999E-5,34,41,72,21871,16748962,16943,8364,8498,4691,3834,1839,Tag0,unknown
1545011816421,0,53,1.1645507812500002E-5,34,41,72,21871,16748962,16943,8364,8498,4691,3834,1839,Tag0,unknown
1545011816421,0,84,1.8457031250000004E-5,34,41,72,21871,16748962,16943,8364,8498,4691,3834,1839,Tag0,unknown
1545011816422,0,102,2.2412109374999998E-5,34,41,72,21871,16748962,16943,8364,8498,4691,3834,1839,Tag0,unknown
1545011816422,0,77,1.69189453125E-5,34,41,72,21871,16748962,16943,8364,8498,4691,3834,1839,Tag0,unknown
1545011816424,0,53,1.1645507812500002E-5,34,41,72,21871,16748962,16943,8364,8498,4691,3834,1839,Tag0,unknown
1545011816424,0,64,1.40625E-5,34,41,72,21871,16748962,16943,8364,8498,4691,3834,1839,Tag0,unknown
1545011816424,0,89,1.95556640625E-5,34,41,72,21871,16748962,16943,8364,8498,4691,3834,1839,Tag0,unknown
1545011816425,0,86,1.8896484375000003E-5,34,41,72,21871,16748962,16943,8364,8498,4691,3834,1839,Tag0,unknown
1545011816426,0,61,1.34033203125E-5,34,41,72,21871,16748962,16943,8364,8498,4691,3834,1839,Tag0,unknown
1545011816426,0,50,1.0986328125E-5,34,41,72,21871,16748962,16943,8364,8498,4691,3834,1839,Tag0,unknown
1545011816426,0,68,1.4941406250000001E-5,34,41,72,21871,16748962,16943,8364,8498,4691,3834,1839,Tag0,unknown
1545011816427,0,107,2.35107421875E-5,34,41,72,21871,16748962,16943,8364,8498,4691,3834,1839,Tag0,unknown
1545011816435,0,119,2.6147460937500004E-5,34,41,72,21871,16748962,16943,8364,8498,4691,3834,1839,Tag0,unknown
1545011816436,0,89,1.95556640625E-5,34,41,72,21871,16748962,16943,8364,8498,4691,3834,1839,Tag0,unknown
1545011816436,0,60,1.318359375E-5,34,41,72,21871,16748962,16943,8364,8498,4691,3834,1839,Tag0,unknown
1545011816436,0,80,1.7578125E-5,34,41,72,21871,16748962,16943,8364,8498,4691,3834,1839,Tag0,unknown
1545011816436,0,125,2.74658203125E-5,34,41,72,21871,16748962,16943,8364,8498,4691,3834,1839,Tag0,unknown
1545011816436,0,-111,-2.43896484375E-5,34,41,72,21871,16748962,16943,8364,8498,4691,3834,1839,Tag0,unknown
1545011816437,0,113,2.48291015625E-5,34,41,72,21871,16748962,16943,8364,8498,4691,3834,1839,Tag0,unknown
1545011816437,0,74,1.6259765625E-5,34,41,72,21871,16748962,16943,8364,8498,4691,3834,1839,Tag0,unknown
1545011816437,0,89,1.95556640625E-5,34,41,72,21871,16748962,16943,8364,8498,4691,3834,1839,Tag0,unknown
1545011816452,0,-121,-2.6586914062500003E-5,34,41,72,21871,16748962,16943,8364,8498,4691,3834,1839,Tag0,unknown
1545011816452,0,-116,-2.548828125E-5,34,41,72,21871,16748962,16943,8364,8498,4691,3834,1839,Tag0,unknown
1545011816453,0,101,2.2192382812500002E-5,34,41,72,21871,16748962,16943,8364,8498,4691,3834,1839,Tag0,unknown
1545011816453,0,67,1.4721679687500002E-5,34,41,72,21871,16748962,16943,8364,8498,4691,3834,1839,Tag0,unknown
1545011816453,0,71,1.56005859375E-5,34,41,72,21871,16748962,16943,8364,8498,4691,3834,1839,Tag0,unknown
1545011816453,0,109,2.39501953125E-5,34,41,72,21871,16748962,16943,8364,8498,4691,3834,1839,Tag0,unknown
1545011816453,0,-127,-2.79052734375E-5,34,41,72,21871,16748962,16943,8364,8498,4691,3834,1839,Tag0,unknown
1545011816454,0,91,1.99951171875E-5,34,41,72,21871,16748962,16943,8364,8498,4691,3834,1839,Tag0,unknown
1545011816454,0,49,1.07666015625E-5,34,41,72,21871,16748962,16943,8364,8498,4691,3834,1839,Tag0,unknown
1545011816468,0,54,1.1865234375000001E-5,34,41,72,21871,16748962,16943,8364,8498,4691,3834,1839,Tag0,unknown
1545011816470,0,108,2.3730468750000002E-5,34,41,72,21871,16748962,16943,8364,8498,4691,3834,1839,Tag0,unknown
1545011816470,0,-119,-2.6147460937500004E-5,34,41,72,21871,16748962,16943,8364,8498,4691,3834,1839,Tag0,unknown
1545011816470,0,114,2.5048828125000003E-5,34,41,72,21871,16748962,16943,8364,8498,4691,3834,1839,Tag0,unknown
1545011816471,0,74,1.6259765625E-5,34,41,72,21871,16748962,16943,8364,8498,4691,3834,1839,Tag0,unknown
1545011816471,0,65,1.42822265625E-5,34,41,72,21871,16748962,16943,8364,8498,4691,3834,1839,Tag0,unknown
1545011816471,0,90,1.9775390625E-5,34,41,72,21871,16748962,16943,8364,8498,4691,3834,1839,Tag0,unknown
1545011816485,0,120,2.63671875E-5,34,41,72,21871,16748962,16943,8364,8498,4691,3834,1839,Tag0,unknown
1545011816485,0,117,2.5708007812499998E-5,34,41,72,21871,16748962,16943,8364,8498,4691,3834,1839,Tag0,unknown
1545011816486,0,92,2.021484375E-5,34,41,72,21871,16748962,16943,8364,8498,4691,3834,1839,Tag0,unknown
1545011816486,0,89,1.95556640625E-5,34,41,72,21871,16748962,16943,8364,8498,4691,3834,1839,Tag0,unknown
1545011816487,0,114,2.5048828125000003E-5,34,41,72,21871,16748962,16943,8364,8498,4691,3834,1839,Tag0,unknown
1545011816487,0,-119,-2.6147460937500004E-5,34,41,72,21871,16748962,16943,8364,8498,4691,3834,1839,Tag0,unknown
1545011816487,0,-124,-2.724609375E-5,34,41,72,21871,16748962,16943,8364,8498,4691,3834,1839,Tag0,unknown
1545011816502,0,102,2.2412109374999998E-5,34,41,72,21871,16748962,16943,8364,8498,4691,3834,1839,Tag0,unknown
1545011816503,0,89,1.95556640625E-5,34,41,72,21871,16748962,16943,8364,8498,4691,3834,1839,Tag0,unknown
1545011816503,0,118,2.5927734375E-5,34,41,72,21871,16748962,16943,8364,8498,4691,3834,1839,Tag0,unknown
1545011816503,0,-95,-2.08740234375E-5,34,41,72,21871,16748962,16943,8364,8498,4691,3834,1839,Tag0,unknown
1545011816503,0,-105,-2.30712890625E-5,34,41,72,21871,16748962,16943,8364,8498,4691,3834,1839,Tag0,unknown
1545011816504,0,91,1.99951171875E-5,34,41,72,21871,16748962,16943,8364,8498,4691,3834,1839,Tag0,unknown
1545011816504,0,40,8.7890625E-6,34,41,72,21871,16748962,16943,8364,8498,4691,3834,1839,Tag0,unknown
1545011816504,0,38,8.349609375E-6,34,41,72,21871,16748962,16943,8364,8498,4691,3834,1839,Tag0,unknown
1545011816504,0,71,1.56005859375E-5,34,41,72,21871,16748962,16943,8364,8498,4691,3834,1839,Tag0,unknown
1545011816505,0,90,1.9775390625E-5,34,41,72,21871,16748962,16943,8364,8498,4691,3834,1839,Tag0,unknown
1545011816505,0,76,1.669921875E-5,34,41,72,21871,16748962,16943,8364,8498,4691,3834,1839,Tag0,unknown
1545011816523,0,49,1.07666015625E-5,34,41,72,21871,16748962,16943,8364,8498,4691,3834,1839,Tag0,unknown
1545011816524,0,41,9.008789062499999E-6,34,41,72,21871,16748962,16943,8364,8498,4691,3834,1839,Tag0,unknown
1545011816526,0,74,1.6259765625E-5,34,41,72,21871,16748962,16943,8364,8498,4691,3834,1839,Tag0,unknown
1545011816528,0,96,2.109375E-5,34,41,72,21871,16748962,16943,8364,8498,4691,3834,1839,Tag0,unknown
1545011816528,0,85,1.86767578125E-5,34,41,72,21871,16748962,16943,8364,8498,4691,3834,1839,Tag0,unknown
1545011816529,0,60,1.318359375E-5,34,41,72,21871,16748962,16943,8364,8498,4691,3834,1839,Tag0,unknown
1545011816529,0,65,1.42822265625E-5,34,41,72,21871,16748962,16943,8364,8498,4691,3834,1839,Tag0,unknown
1545011816529,0,97,2.13134765625E-5,34,41,72,21871,16748962,16943,8364,8498,4691,3834,1839,Tag0,unknown
1545011816529,0,107,2.35107421875E-5,34,41,72,21871,16748962,16943,8364,8498,4691,3834,1839,Tag0,unknown
1545011816529,0,86,1.8896484375000003E-5,34,41,72,21871,16748962,16943,8364,8498,4691,3834,1839,Tag0,unknown
1545011816534,0,67,1.4721679687500002E-5,34,41,72,21871,16748962,16943,8364,8498,4691,3834,1839,Tag0,unknown
1545011816535,0,76,1.669921875E-5,34,41,72,21871,16748962,16943,8364,8498,4691,3834,1839,Tag0,unknown
1545011816535,0,108,2.3730468750000002E-5,34,41,72,21871,16748962,16943,8364,8498,4691,3834,1839,Tag0,unknown
1545011816535,0,-127,-2.79052734375E-5,34,41,72,21871,16748962,16943,8364,8498,4691,3834,1839,Tag0,unknown
1545011816536,0,116,2.548828125E-5,34,41,72,21871,16748962,16943,8364,8498,4691,3834,1839,Tag0,unknown
1545011816536,0,96,2.109375E-5,34,41,72,21871,16748962,16943,8364,8498,4691,3834,1839,Tag0,unknown
1545011816536,0,92,2.021484375E-5,34,41,72,21871,16748962,16943,8364,8498,4691,3834,1839,Tag0,unknown
1545011816552,0,112,2.4609375E-5,34,41,72,21871,16748962,16943,8364,8498,4691,3834,1839,Tag0,unknown
1545011816552,0,-126,-2.7685546875E-5,34,41,72,21871,16748962,16943,8364,8498,4691,3834,1839,Tag0,unknown
1545011816552,0,115,2.52685546875E-5,34,41,72,21871,16748962,16943,8364,8498,4691,3834,1839,Tag0,unknown
1545011816553,0,86,1.8896484375000003E-5,34,41,72,21871,16748962,16943,8364,8498,4691,3834,1839,Tag0,unknown
1545011816553,0,81,1.77978515625E-5,34,41,72,21871,16748962,16943,8364,8498,4691,3834,1839,Tag0,unknown
1545011816553,0,118,2.5927734375E-5,34,41,72,21871,16748962,16943,8364,8498,4691,3834,1839,Tag0,unknown
1545011816553,0,-88,-1.93359375E-5,34,41,72,21871,16748962,16943,8364,8498,4691,3834,1839,Tag0,unknown
1545011816553,0,-90,-1.9775390625E-5,34,41,72,21871,16748962,16943,8364,8498,4691,3834,1839,Tag0,unknown
1545011816554,0,119,2.6147460937500004E-5,34,41,72,21871,16748962,16943,8364,8498,4691,3834,1839,Tag0,unknown
1545011816570,0,83,1.82373046875E-5,34,41,72,21871,16748962,16943,8364,8498,4691,3834,1839,Tag0,unknown
1545011816571,0,90,1.9775390625E-5,34,41,72,21871,16748962,16943,8364,8498,4691,3834,1839,Tag0,unknown
1545011816571,0,122,2.6806640625E-5,34,41,72,21871,16748962,16943,8364,8498,4691,3834,1839,Tag0,unknown
1545011816571,0,122,2.6806640625E-5,34,41,72,21871,16748962,16943,8364,8498,4691,3834,1839,Tag0,unknown
1545011816571,0,87,1.91162109375E-5,34,41,72,21871,16748962,16943,8364,8498,4691,3834,1839,Tag0,unknown
1545011816572,0,67,1.4721679687500002E-5,34,41,72,21871,16748962,16943,8364,8498,4691,3834,1839,Tag0,unknown
1545011816572,0,91,1.99951171875E-5,34,41,72,21871,16748962,16943,8364,8498,4691,3834,1839,Tag0,unknown
1545011816572,0,-123,-2.70263671875E-5,34,41,72,21871,16748962,16943,8364,8498,4691,3834,1839,Tag0,unknown
1545011816585,0,-122,-2.6806640625E-5,34,41,72,21871,16748962,16943,8364,8498,4691,3834,1839,Tag0,unknown
1545011816585,0,90,1.9775390625E-5,34,41,72,21871,16748962,16943,8364,8498,4691,3834,1839,Tag0,unknown
1545011816585,0,43,9.448242187500001E-6,34,41,72,21871,16748962,16943,8364,8498,4691,3834,1839,Tag0,unknown
1545011816585,0,41,9.008789062499999E-6,34,41,72,21871,16748962,16943,8364,8498,4691,3834,1839,Tag0,unknown
1545011816586,0,82,1.8017578124999998E-5,34,41,72,21871,16748962,16943,8364,8498,4691,3834,1839,Tag0,unknown
1545011816586,0,105,2.30712890625E-5,34,41,72,21871,16748962,16943,8364,8498,4691,3834,1839,Tag0,unknown
1545011816586,0,87,1.91162109375E-5,34,41,72,21871,16748962,16943,8364,8498,4691,3834,1839,Tag0,unknown
1545011816586,0,57,1.2524414062500001E-5,34,41,72,21871,16748962,16943,8364,8498,4691,3834,1839,Tag0,unknown
1545011816602,0,53,1.1645507812500002E-5,34,41,72,21871,16748962,16943,8364,8498,4691,3834,1839,Tag0,unknown
1545011816603,0,81,1.77978515625E-5,34,41,72,21871,16748962,16943,8364,8498,4691,3834,1839,Tag0,unknown
1545011816603,0,90,1.9775390625E-5,34,41,72,21871,16748962,16943,8364,8498,4691,3834,1839,Tag0,unknown
1545011816603,0,65,1.42822265625E-5,34,41,72,21871,16748962,16943,8364,8498,4691,3834,1839,Tag0,unknown
1545011816603,0,33,7.2509765625E-6,34,41,72,21871,16748962,16943,8364,8498,4691,3834,1839,Tag0,unknown
1545011816604,0,39,8.5693359375E-6,34,41,72,21871,16748962,16943,8364,8498,4691,3834,1839,Tag0,unknown
1545011816604,0,86,1.8896484375000003E-5,34,41,72,21871,16748962,16943,8364,8498,4691,3834,1839,Tag0,unknown
1545011816604,0,106,2.3291015625000003E-5,34,41,72,21871,16748962,16943,8364,8498,4691,3834,1839,Tag0,unknown
1545011816604,0,74,1.6259765625E-5,34,41,72,21871,16748962,16943,8364,8498,4691,3834,1839,Tag0,unknown
1545011816618,0,43,9.448242187500001E-6,34,41,72,21871,16748962,16943,8364,8498,4691,3834,1839,Tag0,unknown
1545011816618,0,52,1.142578125E-5,34,41,72,21871,16748962,16943,8364,8498,4691,3834,1839,Tag0,unknown
1545011816618,0,89,1.95556640625E-5,34,41,72,21871,16748962,16943,8364,8498,4691,3834,1839,Tag0,unknown
1545011816619,0,107,2.35107421875E-5,34,41,72,21871,16748962,16943,8364,8498,4691,3834,1839,Tag0,unknown
1545011816619,0,76,1.669921875E-5,34,41,72,21871,16748962,16943,8364,8498,4691,3834,1839,Tag0,unknown
1545011816619,0,33,7.2509765625E-6,34,41,72,21871,16748962,16943,8364,8498,4691,3834,1839,Tag0,unknown
1545011816619,0,27,5.9326171875000005E-6,34,41,72,21871,16748962,16943,8364,8498,4691,3834,1839,Tag0,unknown
1545011816620,0,64,1.40625E-5,34,41,72,21871,16748962,16943,8364,8498,4691,3834,1839,Tag0,unknown
1545011816620,0,85,1.86767578125E-5,34,41,72,21871,16748962,16943,8364,8498,4691,3834,1839,Tag0,unknown
1545011816636,0,65,1.42822265625E-5,34,41,72,21871,16748962,16943,8364,8498,4691,3834,1839,Tag0,unknown
1545011816636,0,40,8.7890625E-6,34,41,72,21871,16748962,16943,8364,8498,4691,3834,1839,Tag0,unknown
1545011816636,0,45,9.8876953125E-6,34,41,72,21871,16748962,16943,8364,8498,4691,3834,1839,Tag0,unknown
1545011816637,0,98,2.1533203125E-5,34,41,72,21871,16748962,16943,8364,8498,4691,3834,1839,Tag0,unknown
1545011816637,0,-125,-2.74658203125E-5,34,41,72,21871,16748962,16943,8364,8498,4691,3834,1839,Tag0,unknown
1545011816637,0,92,2.021484375E-5,34,41,72,21871,16748962,16943,8364,8498,4691,3834,1839,Tag0,unknown
1545011816637,0,36,7.91015625E-6,34,41,72,21871,16748962,16943,8364,8498,4691,3834,1839,Tag0,unknown
1545011816637,0,33,7.2509765625E-6,34,41,72,21871,16748962,16943,8364,8498,4691,3834,1839,Tag0,unknown
1545011816651,0,75,1.64794921875E-5,34,41,72,21871,16748962,16943,8364,8498,4691,3834,1839,Tag0,unknown
1545011816651,0,116,2.548828125E-5,34,41,72,21871,16748962,16943,8364,8498,4691,3834,1839,Tag0,unknown
1545011816652,0,90,1.9775390625E-5,34,41,72,21871,16748962,16943,8364,8498,4691,3834,1839,Tag0,unknown
1545011816652,0,28,6.15234375E-6,34,41,72,21871,16748962,16943,8364,8498,4691,3834,1839,Tag0,unknown
1545011816652,0,10,2.197265625E-6,34,41,72,21871,16748962,16943,8364,8498,4691,3834,1839,Tag0,unknown
1545011816652,0,71,1.56005859375E-5,34,41,72,21871,16748962,16943,8364,8498,4691,3834,1839,Tag0,unknown
1545011816652,0,-100,-2.197265625E-5,34,41,72,21871,16748962,16943,8364,8498,4691,3834,1839,Tag0,unknown
1545011816653,0,-85,-1.86767578125E-5,34,41,72,21871,16748962,16943,8364,8498,4691,3834,1839,Tag0,unknown
1545011816653,0,124,2.724609375E-5,34,41,72,21871,16748962,16943,8364,8498,4691,3834,1839,Tag0,unknown
1545011816668,0,96,2.109375E-5,34,41,72,21871,16748962,16943,8364,8498,4691,3834,1839,Tag0,unknown
1545011816669,0,120,2.63671875E-5,34,41,72,21871,16748962,16943,8364,8498,4691,3834,1839,Tag0,unknown
1545011816669,0,-87,-1.91162109375E-5,34,41,72,21871,16748962,16943,8364,8498,4691,3834,1839,Tag0,unknown
1545011816669,0,-68,-1.4941406250000001E-5,34,41,72,21871,16748962,16943,8364,8498,4691,3834,1839,Tag0,unknown
1545011816669,0,-102,-2.2412109374999998E-5,34,41,72,21871,16748962,16943,8364,8498,4691,3834,1839,Tag0,unknown
1545011816670,0,114,2.5048828125000003E-5,34,41,72,21871,16748962,16943,8364,8498,4691,3834,1839,Tag0,unknown
1545011816670,0,112,2.4609375E-5,34,41,72,21871,16748962,16943,8364,8498,4691,3834,1839,Tag0,unknown
1545011816670,0,-126,-2.7685546875E-5,34,41,72,21871,16748962,16943,8364,8498,4691,3834,1839,Tag0,unknown
1545011816690,0,114,2.5048828125000003E-5,34,41,72,21871,16748962,16943,8364,8498,4691,3834,1839,Tag0,unknown
1545011816691,0,70,1.5380859375E-5,34,41,72,21871,16748962,16943,8364,8498,4691,3834,1839,Tag0,unknown
1545011816693,0,39,8.5693359375E-6,34,41,72,21871,16748962,16943,8364,8498,4691,3834,1839,Tag0,unknown
1545011816694,0,42,9.228515625000002E-6,34,41,72,21871,16748962,16943,8364,8498,4691,3834,1839,Tag0,unknown
1545011816695,0,83,1.82373046875E-5,34,41,72,21871,16748962,16943,8364,8498,4691,3834,1839,Tag0,unknown
1545011816696,0,107,2.35107421875E-5,34,41,72,21871,16748962,16943,8364,8498,4691,3834,1839,Tag0,unknown
1545011816696,0,90,1.9775390625E-5,34,41,72,21871,16748962,16943,8364,8498,4691,3834,1839,Tag0,unknown
1545011816697,0,65,1.42822265625E-5,34,41,72,21871,16748962,16943,8364,8498,4691,3834,1839,Tag0,unknown
1545011816697,0,58,1.2744140625E-5,34,41,72,21871,16748962,16943,8364,8498,4691,3834,1839,Tag0,unknown
1545011816701,0,87,1.91162109375E-5,34,41,72,21871,16748962,16943,8364,8498,4691,3834,1839,Tag0,unknown
1545011816701,0,106,2.3291015625000003E-5,34,41,72,21871,16748962,16943,8364,8498,4691,3834,1839,Tag0,unknown
1545011816701,0,85,1.86767578125E-5,34,41,72,21871,16748962,16943,8364,8498,4691,3834,1839,Tag0,unknown
1545011816701,0,50,1.0986328125E-5,34,41,72,21871,16748962,16943,8364,8498,4691,3834,1839,Tag0,unknown
1545011816702,0,45,9.8876953125E-6,34,41,72,21871,16748962,16943,8364,8498,4691,3834,1839,Tag0,unknown
1545011816702,0,90,1.9775390625E-5,34,41,72,21871,16748962,16943,8364,8498,4691,3834,1839,Tag0,unknown
1545011816702,0,122,2.6806640625E-5,34,41,72,21871,16748962,16943,8364,8498,4691,3834,1839,Tag0,unknown
1545011816703,0,103,2.26318359375E-5,34,41,72,21871,16748962,16943,8364,8498,4691,3834,1839,Tag0,unknown
1545011816718,0,76,1.669921875E-5,34,41,72,21871,16748962,16943,8364,8498,4691,3834,1839,Tag0,unknown
1545011816719,0,83,1.82373046875E-5,34,41,72,21871,16748962,16943,8364,8498,4691,3834,1839,Tag0,unknown
1545011816719,0,104,2.28515625E-5,34,41,72,21871,16748962,16943,8364,8498,4691,3834,1839,Tag0,unknown
1545011816719,0,108,2.3730468750000002E-5,34,41,72,21871,16748962,16943,8364,8498,4691,3834,1839,Tag0,unknown
1545011816720,0,74,1.6259765625E-5,34,41,72,21871,16748962,16943,8364,8498,4691,3834,1839,Tag0,unknown
1545011816720,0,22,4.833984375E-6,34,41,72,21871,16748962,16943,8364,8498,4691,3834,1839,Tag0,unknown
1545011816720,0,7,1.5380859375E-6,34,41,72,21871,16748962,16943,8364,8498,4691,3834,1839,Tag0,unknown
1545011816720,0,39,8.5693359375E-6,34,41,72,21871,16748962,16943,8364,8498,4691,3834,1839,Tag0,unknown
1545011816720,0,59,1.29638671875E-5,34,41,72,21871,16748962,16943,8364,8498,4691,3834,1839,Tag0,unknown
1545011816734,0,37,8.1298828125E-6,34,41,72,21871,16748962,16943,8364,8498,4691,3834,1839,Tag0,unknown
1545011816735,0,6,1.318359375E-6,34,41,72,21871,16748962,16943,8364,8498,4691,3834,1839,Tag0,unknown
1545011816735,0,4,8.7890625E-7,34,41,72,21871,16748962,16943,8364,8498,4691,3834,1839,Tag0,unknown
1545011816736,0,39,8.5693359375E-6,34,41,72,21871,16748962,16943,8364,8498,4691,3834,1839,Tag0,unknown
1545011816756,0,73,1.6040039062500002E-5,34,41,72,21871,16748962,16943,8364,8498,4691,3834,1839,Tag0,unknown
1545011816757,0,68,1.4941406250000001E-5,34,41,72,21871,16748962,16943,8364,8498,4691,3834,1839,Tag0,unknown
1545011816757,0,40,8.7890625E-6,34,41,72,21871,16748962,16943,8364,8498,4691,3834,1839,Tag0,unknown
1545011816758,0,9,1.9775390625E-6,34,41,72,21871,16748962,16943,8364,8498,4691,3834,1839,Tag0,unknown
1545011816758,0,6,1.318359375E-6,34,41,72,21871,16748962,16943,8364,8498,4691,3834,1839,Tag0,unknown
1545011816759,0,27,5.9326171875000005E-6,34,41,72,21871,16748962,16943,8364,8498,4691,3834,1839,Tag0,unknown
1545011816759,0,22,4.833984375E-6,34,41,72,21871,16748962,16943,8364,8498,4691,3834,1839,Tag0,unknown
1545011816759,0,-277,-6.0864257812500005E-5,34,41,72,21871,16748962,16943,8364,8498,4691,3834,1839,Tag0,unknown
1545011816759,0,-325,-7.14111328125E-5,34,41,72,21871,16748962,16943,8364,8498,4691,3834,1839,Tag0,unknown
1545011816759,0,-325,-7.14111328125E-5,34,41,72,21871,16748962,16943,8364,8498,4691,3834,1839,Tag0,unknown
1545011816760,0,-295,-6.48193359375E-5,34,41,72,21871,16748962,16943,8364,8498,4691,3834,1839,Tag0,unknown
1545011816760,0,-291,-6.39404296875E-5,34,41,72,21871,16748962,16943,8364,8498,4691,3834,1839,Tag0,unknown
1545011816760,0,-309,-6.78955078125E-5,34,41,72,21871,16748962,16943,8364,8498,4691,3834,1839,Tag0,unknown
1545011816760,0,-312,-6.85546875E-5,34,41,72,21871,16748962,16943,8364,8498,4691,3834,1839,Tag0,unknown
1545011816760,0,-290,-6.3720703125E-5,34,41,72,21871,16748962,16943,8364,8498,4691,3834,1839,Tag0,unknown
1545011816769,0,-258,-5.6689453125000004E-5,34,41,72,21871,16748962,16943,8364,8498,4691,3834,1839,Tag0,unknown
1545011816769,0,9,1.9775390625E-6,34,41,72,21871,16748962,16943,8364,8498,4691,3834,1839,Tag0,unknown
1545011816769,0,2,4.39453125E-7,34,41,72,21871,16748962,16943,8364,8498,4691,3834,1839,Tag0,unknown
1545011816770,0,-264,-5.80078125E-5,34,41,72,21871,16748962,16943,8364,8498,4691,3834,1839,Tag0,unknown
1545011816770,0,3,6.591796875E-7,34,41,72,21871,16748962,16943,8364,8498,4691,3834,1839,Tag0,unknown
1545011816770,0,34,7.4707031250000005E-6,34,41,72,21871,16748962,16943,8364,8498,4691,3834,1839,Tag0,unknown
1545011816795,0,56,1.23046875E-5,34,41,72,21871,16748962,16943,8364,8498,4691,3834,1839,Tag0,unknown
1545011816795,0,51,1.1206054687499999E-5,34,41,72,21871,16748962,16943,8364,8498,4691,3834,1839,Tag0,unknown
1545011816795,0,19,4.1748046875E-6,34,41,72,21871,16748962,16943,8364,8498,4691,3834,1839,Tag0,unknown
1545011816796,0,2,4.39453125E-7,34,41,72,21871,16748962,16943,8364,8498,4691,3834,1839,Tag0,unknown
1545011816796,0,18,3.955078125E-6,34,41,72,21871,16748962,16943,8364,8498,4691,3834,1839,Tag0,unknown
1545011816796,0,38,8.349609375E-6,34,41,72,21871,16748962,16943,8364,8498,4691,3834,1839,Tag0,unknown
1545011816796,0,25,5.4931640625E-6,34,41,72,21871,16748962,16943,8364,8498,4691,3834,1839,Tag0,unknown
1545011816797,0,-264,-5.80078125E-5,34,41,72,21871,16748962,16943,8364,8498,4691,3834,1839,Tag0,unknown
1545011816797,0,-279,-6.13037109375E-5,34,41,72,21871,16748962,16943,8364,8498,4691,3834,1839,Tag0,unknown
1545011816797,0,13,2.8564453125E-6,34,41,72,21871,16748962,16943,8364,8498,4691,3834,1839,Tag0,unknown
1545011816797,0,66,1.4501953125E-5,34,41,72,21871,16748962,16943,8364,8498,4691,3834,1839,Tag0,unknown
1545011816798,0,72,1.58203125E-5,34,41,72,21871,16748962,16943,8364,8498,4691,3834,1839,Tag0,unknown
1545011816798,0,43,9.448242187500001E-6,34,41,72,21871,16748962,16943,8364,8498,4691,3834,1839,Tag0,unknown
1545011816801,0,20,4.39453125E-6,34,41,72,21871,16748962,16943,8364,8498,4691,3834,1839,Tag0,unknown
1545011816802,0,23,5.0537109375E-6,34,41,72,21871,16748962,16943,8364,8498,4691,3834,1839,Tag0,unknown
1545011816802,0,44,9.66796875E-6,34,41,72,21871,16748962,16943,8364,8498,4691,3834,1839,Tag0,unknown
1545011816802,0,56,1.23046875E-5,34,41,72,21871,16748962,16943,8364,8498,4691,3834,1839,Tag0,unknown
1545011816868,0,51,1.1206054687499999E-5,34,41,72,21871,16748962,16943,8364,8498,4691,3834,1839,Tag0,unknown
1545011816887,0,45,9.8876953125E-6,34,41,72,21871,16748962,16943,8364,8498,4691,3834,1839,Tag0,unknown
1545011816936,0,68,1.4941406250000001E-5,34,41,72,21871,16748962,16943,8364,8498,4691,3834,1839,Tag0,unknown
1545011816976,0,99,2.1752929687500003E-5,34,41,72,21871,16748962,16943,8364,8498,4691,3834,1839,Tag0,unknown
1545011816986,0,87,1.91162109375E-5,34,41,72,21871,16748962,16943,8364,8498,4691,3834,1839,Tag0,unknown
1545011816987,0,38,8.349609375E-6,34,41,72,21871,16748962,16943,8364,8498,4691,3834,1839,Tag0,unknown
1545011816988,0,1,2.197265625E-7,34,41,72,21871,16748962,16943,8364,8498,4691,3834,1839,Tag0,unknown
1545011816988,0,6,1.318359375E-6,34,41,72,21871,16748962,16943,8364,8498,4691,3834,1839,Tag0,unknown
1545011816990,0,36,7.91015625E-6,34,41,72,21871,16748962,16943,8364,8498,4691,3834,1839,Tag0,unknown
1545011816992,0,28,6.15234375E-6,34,41,72,21871,16748962,16943,8364,8498,4691,3834,1839,Tag0,unknown
1545011816993,0,-266,-5.8447265625E-5,34,41,72,21871,16748962,16943,8364,8498,4691,3834,1839,Tag0,unknown
1545011816994,0,-292,-6.416015625000001E-5,34,41,72,21871,16748962,16943,8364,8498,4691,3834,1839,Tag0,unknown
1545011816994,0,-281,-6.17431640625E-5,34,41,72,21871,16748962,16943,8364,8498,4691,3834,1839,Tag0,unknown
1545011816995,0,1,2.197265625E-7,34,41,72,21871,16748962,16943,8364,8498,4691,3834,1839,Tag0,unknown
1545011816995,0,5,1.0986328125E-6,34,41,72,21871,16748962,16943,8364,8498,4691,3834,1839,Tag0,unknown
1545011816996,0,-275,-6.04248046875E-5,34,41,72,21871,16748962,16943,8364,8498,4691,3834,1839,Tag0,unknown
1545011816996,0,-305,-6.70166015625E-5,34,41,72,21871,16748962,16943,8364,8498,4691,3834,1839,Tag0,unknown
1545011816997,0,-305,-6.70166015625E-5,34,41,72,21871,16748962,16943,8364,8498,4691,3834,1839,Tag0,unknown
1545011816997,0,-283,-6.218261718750001E-5,34,41,72,21871,16748962,16943,8364,8498,4691,3834,1839,Tag0,unknown
1545011816998,0,-282,-6.1962890625E-5,34,41,72,21871,16748962,16943,8364,8498,4691,3834,1839,Tag0,unknown
1545011816999,0,-308,-6.767578125E-5,34,41,72,21871,16748962,16943,8364,8498,4691,3834,1839,Tag0,unknown
1545011817000,0,-325,-7.14111328125E-5,34,41,72,21871,16748962,16943,8364,8498,4691,3834,1839,Tag0,unknown
1545011817001,0,-317,-6.96533203125E-5,34,41,72,21871,16748962,16943,8364,8498,4691,3834,1839,Tag0,unknown
1545011817001,0,-291,-6.39404296875E-5,34,41,72,21871,16748962,16943,8364,8498,4691,3834,1839,Tag0,unknown
1545011817002,0,-285,-6.26220703125E-5,34,41,72,21871,16748962,16943,8364,8498,4691,3834,1839,Tag0,unknown
1545011817003,0,-308,-6.767578125E-5,34,41,72,21871,16748962,16943,8364,8498,4691,3834,1839,Tag0,unknown
1545011817003,0,-318,-6.9873046875E-5,34,41,72,21871,16748962,16943,8364,8498,4691,3834,1839,Tag0,unknown
1545011817004,0,-315,-6.92138671875E-5,34,41,72,21871,16748962,16943,8364,8498,4691,3834,1839,Tag0,unknown
1545011817004,0,-306,-6.723632812500001E-5,34,41,72,21871,16748962,16943,8364,8498,4691,3834,1839,Tag0,unknown
1545011817005,0,-301,-6.613769531250001E-5,34,41,72,21871,16748962,16943,8364,8498,4691,3834,1839,Tag0,unknown
1545011817005,0,-321,-7.053222656250001E-5,34,41,72,21871,16748962,16943,8364,8498,4691,3834,1839,Tag0,unknown
1545011817010,0,-332,-7.294921875E-5,34,41,72,21871,16748962,16943,8364,8498,4691,3834,1839,Tag0,unknown
1545011817010,0,-322,-7.0751953125E-5,34,41,72,21871,16748962,16943,8364,8498,4691,3834,1839,Tag0,unknown
1545011817011,0,-283,-6.218261718750001E-5,34,41,72,21871,16748962,16943,8364,8498,4691,3834,1839,Tag0,unknown
1545011817011,0,3,6.591796875E-7,34,41,72,21871,16748962,16943,8364,8498,4691,3834,1839,Tag0,unknown
1545011817011,0,-262,-5.7568359375E-5,34,41,72,21871,16748962,16943,8364,8498,4691,3834,1839,Tag0,unknown
1545011817011,0,-298,-6.5478515625E-5,34,41,72,21871,16748962,16943,8364,8498,4691,3834,1839,Tag0,unknown
1545011817012,0,-326,-7.163085937500001E-5,34,41,72,21871,16748962,16943,8364,8498,4691,3834,1839,Tag0,unknown
1545011817012,0,-309,-6.78955078125E-5,34,41,72,21871,16748962,16943,8364,8498,4691,3834,1839,Tag0,unknown
1545011817012,0,-259,-5.69091796875E-5,34,41,72,21871,16748962,16943,8364,8498,4691,3834,1839,Tag0,unknown
1545011817012,0,8,1.7578125E-6,34,41,72,21871,16748962,16943,8364,8498,4691,3834,1839,Tag0,unknown
1545011817013,0,-279,-6.13037109375E-5,34,41,72,21871,16748962,16943,8364,8498,4691,3834,1839,Tag0,unknown
1545011817013,0,-301,-6.613769531250001E-5,34,41,72,21871,16748962,16943,8364,8498,4691,3834,1839,Tag0,unknown
1545011817013,0,-285,-6.26220703125E-5,34,41,72,21871,16748962,16943,8364,8498,4691,3834,1839,Tag0,unknown
1545011817014,0,-261,-5.73486328125E-5,34,41,72,21871,16748962,16943,8364,8498,4691,3834,1839,Tag0,unknown
1545011817014,0,-267,-5.86669921875E-5,34,41,72,21871,16748962,16943,8364,8498,4691,3834,1839,Tag0,unknown
1545011817014,0,-301,-6.613769531250001E-5,34,41,72,21871,16748962,16943,8364,8498,4691,3834,1839,Tag0,unknown
1545011817017,0,-322,-7.0751953125E-5,34,41,72,21871,16748962,16943,8364,8498,4691,3834,1839,Tag0,unknown
1545011817018,0,-300,-6.591796875E-5,34,41,72,21871,16748962,16943,8364,8498,4691,3834,1839,Tag0,unknown
1545011817018,0,-265,-5.82275390625E-5,34,41,72,21871,16748962,16943,8364,8498,4691,3834,1839,Tag0,unknown
1545011817018,0,-270,-5.9326171875E-5,34,41,72,21871,16748962,16943,8364,8498,4691,3834,1839,Tag0,unknown
1545011817018,0,-307,-6.74560546875E-5,34,41,72,21871,16748962,16943,8364,8498,4691,3834,1839,Tag0,unknown
1545011817019,0,-329,-7.229003906250001E-5,34,41,72,21871,16748962,16943,8364,8498,4691,3834,1839,Tag0,unknown
1545011817019,0,-310,-6.8115234375E-5,34,41,72,21871,16748962,16943,8364,8498,4691,3834,1839,Tag0,unknown
1545011817019,0,-273,-5.998535156250001E-5,34,41,72,21871,16748962,16943,8364,8498,4691,3834,1839,Tag0,unknown
1545011817019,0,-259,-5.69091796875E-5,34,41,72,21871,16748962,16943,8364,8498,4691,3834,1839,Tag0,unknown
1545011817019,0,-269,-5.9106445312499996E-5,34,41,72,21871,16748962,16943,8364,8498,4691,3834,1839,Tag0,unknown
1545011817019,0,-285,-6.26220703125E-5,34,41,72,21871,16748962,16943,8364,8498,4691,3834,1839,Tag0,unknown
1545011817020,0,-265,-5.82275390625E-5,34,41,72,21871,16748962,16943,8364,8498,4691,3834,1839,Tag0,unknown
1545011817020,0,17,3.7353515625000003E-6,34,41,72,21871,16748962,16943,8364,8498,4691,3834,1839,Tag0,unknown
1545011817020,0,13,2.8564453125E-6,34,41,72,21871,16748962,16943,8364,8498,4691,3834,1839,Tag0,unknown
1545011817020,0,-273,-5.998535156250001E-5,34,41,72,21871,16748962,16943,8364,8498,4691,3834,1839,Tag0,unknown
1545011817020,0,-306,-6.723632812500001E-5,34,41,72,21871,16748962,16943,8364,8498,4691,3834,1839,Tag0,unknown
1545011817021,0,-293,-6.43798828125E-5,34,41,72,21871,16748962,16943,8364,8498,4691,3834,1839,Tag0,unknown
1545011817021,0,10,2.197265625E-6,34,41,72,21871,16748962,16943,8364,8498,4691,3834,1839,Tag0,unknown
1545011817021,0,34,7.4707031250000005E-6,34,41,72,21871,16748962,16943,8364,8498,4691,3834,1839,Tag0,unknown
1545011817021,0,2,4.39453125E-7,34,41,72,21871,16748962,16943,8364,8498,4691,3834,1839,Tag0,unknown
1545011817021,0,-285,-6.26220703125E-5,34,41,72,21871,16748962,16943,8364,8498,4691,3834,1839,Tag0,unknown
1545011817022,0,-283,-6.218261718750001E-5,34,41,72,21871,16748962,16943,8364,8498,4691,3834,1839,Tag0,unknown
1545011817022,0,5,1.0986328125E-6,34,41,72,21871,16748962,16943,8364,8498,4691,3834,1839,Tag0,unknown
1545011817022,0,23,5.0537109375E-6,34,41,72,21871,16748962,16943,8364,8498,4691,3834,1839,Tag0,unknown
1545011817022,0,10,2.197265625E-6,34,41,72,21871,16748962,16943,8364,8498,4691,3834,1839,Tag0,unknown
1545011817023,0,-263,-5.7788085937500005E-5,34,41,72,21871,16748962,16943,8364,8498,4691,3834,1839,Tag0,unknown
1545011817023,0,-268,-5.8886718750000006E-5,34,41,72,21871,16748962,16943,8364,8498,4691,3834,1839,Tag0,unknown
1545011817023,0,10,2.197265625E-6,34,41,72,21871,16748962,16943,8364,8498,4691,3834,1839,Tag0,unknown
1545011817023,0,35,7.6904296875E-6,34,41,72,21871,16748962,16943,8364,8498,4691,3834,1839,Tag0,unknown
1545011817023,0,23,5.0537109375E-6,34,41,72,21871,16748962,16943,8364,8498,4691,3834,1839,Tag0,unknown
1545011817023,0,-259,-5.69091796875E-5,34,41,72,21871,16748962,16943,8364,8498,4691,3834,1839,Tag0,unknown
1545011817024,0,-264,-5.80078125E-5,34,41,72,21871,16748962,16943,8364,8498,4691,3834,1839,Tag0,unknown
1545011817024,0,10,2.197265625E-6,34,41,72,21871,16748962,16943,8364,8498,4691,3834,1839,Tag0,unknown
1545011817024,0,33,7.2509765625E-6,34,41,72,21871,16748962,16943,8364,8498,4691,3834,1839,Tag0,unknown
1545011817024,0,23,5.0537109375E-6,34,41,72,21871,16748962,16943,8364,8498,4691,3834,1839,Tag0,unknown
1545011817025,0,-259,-5.69091796875E-5,34,41,72,21871,16748962,16943,8364,8498,4691,3834,1839,Tag0,unknown
1545011817025,0,-269,-5.9106445312499996E-5,34,41,72,21871,16748962,16943,8364,8498,4691,3834,1839,Tag0,unknown
1545011817025,0,4,8.7890625E-7,34,41,72,21871,16748962,16943,8364,8498,4691,3834,1839,Tag0,unknown
1545011817025,0,29,6.3720703125E-6,34,41,72,21871,16748962,16943,8364,8498,4691,3834,1839,Tag0,unknown
1545011817025,0,21,4.614257812500001E-6,34,41,72,21871,16748962,16943,8364,8498,4691,3834,1839,Tag0,unknown
1545011817026,0,-268,-5.8886718750000006E-5,34,41,72,21871,16748962,16943,8364,8498,4691,3834,1839,Tag0,unknown
1545011817026,0,-274,-6.0205078124999997E-5,34,41,72,21871,16748962,16943,8364,8498,4691,3834,1839,Tag0,unknown
1545011817026,0,13,2.8564453125E-6,34,41,72,21871,16748962,16943,8364,8498,4691,3834,1839,Tag0,unknown
1545011817027,0,37,8.1298828125E-6,34,41,72,21871,16748962,16943,8364,8498,4691,3834,1839,Tag0,unknown
1545011817027,0,24,5.2734375E-6,34,41,72,21871,16748962,16943,8364,8498,4691,3834,1839,Tag0,unknown
1545011817027,0,7,1.5380859375E-6,34,41,72,21871,16748962,16943,8364,8498,4691,3834,1839,Tag0,unknown
1545011817027,0,13,2.8564453125E-6,34,41,72,21871,16748962,16943,8364,8498,4691,3834,1839,Tag0,unknown
1545011817027,0,55,1.20849609375E-5,34,41,72,21871,16748962,16943,8364,8498,4691,3834,1839,Tag0,unknown
1545011817028,0,101,2.2192382812500002E-5,34,41,72,21871,16748962,16943,8364,8498,4691,3834,1839,Tag0,unknown
1545011817033,0,101,2.2192382812500002E-5,38,53,72,181937,16244,16746399,5250,10803,10244,3796,2873,Tag0,unknown
1545011817034,0,54,1.1865234375000001E-5,38,53,72,181937,16244,16746399,5250,10803,10244,3796,2873,Tag0,unknown
1545011817034,0,21,4.614257812500001E-6,38,53,72,181937,16244,16746399,5250,10803,10244,3796,2873,Tag0,unknown
1545011817034,0,48,1.0546875E-5,38,53,72,181937,16244,16746399,5250,10803,10244,3796,2873,Tag0,unknown
1545011817034,0,99,2.1752929687500003E-5,38,53,72,181937,16244,16746399,5250,10803,10244,3796,2873,Tag0,unknown
1545011817034,0,114,2.5048828125000003E-5,38,53,72,181937,16244,16746399,5250,10803,10244,3796,2873,Tag0,unknown
1545011817035,0,85,1.86767578125E-5,38,53,72,181937,16244,16746399,5250,10803,10244,3796,2873,Tag0,unknown
1545011817035,0,54,1.1865234375000001E-5,38,53,72,181937,16244,16746399,5250,10803,10244,3796,2873,Tag0,unknown
1545011817035,0,77,1.69189453125E-5,38,53,72,181937,16244,16746399,5250,10803,10244,3796,2873,Tag0,unknown
1545011817036,0,-120,-2.63671875E-5,38,53,72,181937,16244,16746399,5250,10803,10244,3796,2873,Tag0,unknown
1545011817036,0,-92,-2.021484375E-5,38,53,72,181937,16244,16746399,5250,10803,10244,3796,2873,Tag0,unknown
1545011817036,0,-121,-2.6586914062500003E-5,38,53,72,181937,16244,16746399,5250,10803,10244,3796,2873,Tag0,unknown
1545011817036,0,99,2.1752929687500003E-5,38,53,72,181937,16244,16746399,5250,10803,10244,3796,2873,Tag0,unknown
1545011817036,0,98,2.1533203125E-5,38,53,72,181937,16244,16746399,5250,10803,10244,3796,2873,Tag0,unknown
1545011817037,0,-109,-2.39501953125E-5,38,53,72,181937,16244,16746399,5250,10803,10244,3796,2873,Tag0,unknown
1545011817037,0,-73,-1.6040039062500002E-5,38,53,72,181937,16244,16746399,5250,10803,10244,3796,2873,Tag0,unknown
1545011817037,0,-100,-2.197265625E-5,38,53,72,181937,16244,16746399,5250,10803,10244,3796,2873,Tag0,unknown
1545011817037,0,116,2.548828125E-5,38,53,72,181937,16244,16746399,5250,10803,10244,3796,2873,Tag0,unknown
1545011817038,0,115,2.52685546875E-5,38,53,72,181937,16244,16746399,5250,10803,10244,3796,2873,Tag0,unknown
1545011817038,0,-108,-2.3730468750000002E-5,38,53,72,181937,16244,16746399,5250,10803,10244,3796,2873,Tag0,unknown
1545011817038,0,-91,-1.99951171875E-5,38,53,72,181937,16244,16746399,5250,10803,10244,3796,2873,Tag0,unknown
1545011817042,0,-123,-2.70263671875E-5,38,53,72,181937,16244,16746399,5250,10803,10244,3796,2873,Tag0,unknown
1545011817043,0,103,2.26318359375E-5,38,53,72,181937,16244,16746399,5250,10803,10244,3796,2873,Tag0,unknown
1545011817043,0,112,2.4609375E-5,38,53,72,181937,16244,16746399,5250,10803,10244,3796,2873,Tag0,unknown
1545011817043,0,-115,-2.52685546875E-5,38,53,72,181937,16244,16746399,5250,10803,10244,3796,2873,Tag0,unknown
1545011817043,0,-112,-2.4609375E-5,38,53,72,181937,16244,16746399,5250,10803,10244,3796,2873,Tag0,unknown
1545011817051,0,101,2.2192382812500002E-5,38,53,72,181937,16244,16746399,5250,10803,10244,3796,2873,Tag0,unknown
1545011817051,0,71,1.56005859375E-5,38,53,72,181937,16244,16746399,5250,10803,10244,3796,2873,Tag0,unknown
1545011817052,0,99,2.1752929687500003E-5,38,53,72,181937,16244,16746399,5250,10803,10244,3796,2873,Tag0,unknown
1545011817052,0,-106,-2.3291015625000003E-5,38,53,72,181937,16244,16746399,5250,10803,10244,3796,2873,Tag0,unknown
1545011817052,0,-92,-2.021484375E-5,38,53,72,181937,16244,16746399,5250,10803,10244,3796,2873,Tag0,unknown
1545011817069,0,-127,-2.79052734375E-5,38,53,72,181937,16244,16746399,5250,10803,10244,3796,2873,Tag0,unknown
1545011817070,0,92,2.021484375E-5,38,53,72,181937,16244,16746399,5250,10803,10244,3796,2873,Tag0,unknown
1545011817071,0,96,2.109375E-5,38,53,72,181937,16244,16746399,5250,10803,10244,3796,2873,Tag0,unknown
1545011817071,0,-125,-2.74658203125E-5,38,53,72,181937,16244,16746399,5250,10803,10244,3796,2873,Tag0,unknown
1545011817071,0,-91,-1.99951171875E-5,38,53,72,181937,16244,16746399,5250,10803,10244,3796,2873,Tag0,unknown
1545011817072,0,-92,-2.021484375E-5,38,53,72,181937,16244,16746399,5250,10803,10244,3796,2873,Tag0,unknown
1545011817072,0,-115,-2.52685546875E-5,38,53,72,181937,16244,16746399,5250,10803,10244,3796,2873,Tag0,unknown
1545011817072,0,-124,-2.724609375E-5,38,53,72,181937,16244,16746399,5250,10803,10244,3796,2873,Tag0,unknown
1545011817072,0,-110,-2.4169921875E-5,38,53,72,181937,16244,16746399,5250,10803,10244,3796,2873,Tag0,unknown
1545011817085,0,-87,-1.91162109375E-5,38,53,72,181937,16244,16746399,5250,10803,10244,3796,2873,Tag0,unknown
1545011817085,0,-95,-2.08740234375E-5,38,53,72,181937,16244,16746399,5250,10803,10244,3796,2873,Tag0,unknown
1545011817086,0,118,2.5927734375E-5,38,53,72,181937,16244,16746399,5250,10803,10244,3796,2873,Tag0,unknown
1545011817086,0,101,2.2192382812500002E-5,38,53,72,181937,16244,16746399,5250,10803,10244,3796,2873,Tag0,unknown
1545011817086,0,124,2.724609375E-5,38,53,72,181937,16244,16746399,5250,10803,10244,3796,2873,Tag0,unknown
1545011817086,0,-103,-2.26318359375E-5,38,53,72,181937,16244,16746399,5250,10803,10244,3796,2873,Tag0,unknown
1545011817102,0,-122,-2.6806640625E-5,38,53,72,181937,16244,16746399,5250,10803,10244,3796,2873,Tag0,unknown
1545011817103,0,80,1.7578125E-5,38,53,72,181937,16244,16746399,5250,10803,10244,3796,2873,Tag0,unknown
1545011817103,0,51,1.1206054687499999E-5,38,53,72,181937,16244,16746399,5250,10803,10244,3796,2873,Tag0,unknown
1545011817103,0,73,1.6040039062500002E-5,38,53,72,181937,16244,16746399,5250,10803,10244,3796,2873,Tag0,unknown
1545011817104,0,113,2.48291015625E-5,38,53,72,181937,16244,16746399,5250,10803,10244,3796,2873,Tag0,unknown
1545011817104,0,114,2.5048828125000003E-5,38,53,72,181937,16244,16746399,5250,10803,10244,3796,2873,Tag0,unknown
1545011817104,0,76,1.669921875E-5,38,53,72,181937,16244,16746399,5250,10803,10244,3796,2873,Tag0,unknown
1545011817105,0,50,1.0986328125E-5,38,53,72,181937,16244,16746399,5250,10803,10244,3796,2873,Tag0,unknown
1545011817105,0,59,1.29638671875E-5,38,53,72,181937,16244,16746399,5250,10803,10244,3796,2873,Tag0,unknown
1545011817105,0,100,2.197265625E-5,38,53,72,181937,16244,16746399,5250,10803,10244,3796,2873,Tag0,unknown
1545011817105,0,121,2.6586914062500003E-5,38,53,72,181937,16244,16746399,5250,10803,10244,3796,2873,Tag0,unknown
1545011817105,0,103,2.26318359375E-5,38,53,72,181937,16244,16746399,5250,10803,10244,3796,2873,Tag0,unknown
1545011817121,0,76,1.669921875E-5,38,53,72,181937,16244,16746399,5250,10803,10244,3796,2873,Tag0,unknown
1545011817121,0,83,1.82373046875E-5,38,53,72,181937,16244,16746399,5250,10803,10244,3796,2873,Tag0,unknown
1545011817122,0,118,2.5927734375E-5,38,53,72,181937,16244,16746399,5250,10803,10244,3796,2873,Tag0,unknown
1545011817122,0,-126,-2.7685546875E-5,38,53,72,181937,16244,16746399,5250,10803,10244,3796,2873,Tag0,unknown
1545011817136,0,100,2.197265625E-5,38,53,72,181937,16244,16746399,5250,10803,10244,3796,2873,Tag0,unknown
1545011817137,0,72,1.58203125E-5,38,53,72,181937,16244,16746399,5250,10803,10244,3796,2873,Tag0,unknown
1545011817137,0,67,1.4721679687500002E-5,38,53,72,181937,16244,16746399,5250,10803,10244,3796,2873,Tag0,unknown
1545011817137,0,72,1.58203125E-5,38,53,72,181937,16244,16746399,5250,10803,10244,3796,2873,Tag0,unknown
1545011817137,0,69,1.51611328125E-5,38,53,72,181937,16244,16746399,5250,10803,10244,3796,2873,Tag0,unknown
1545011817137,0,54,1.1865234375000001E-5,38,53,72,181937,16244,16746399,5250,10803,10244,3796,2873,Tag0,unknown
1545011817138,0,37,8.1298828125E-6,38,53,72,181937,16244,16746399,5250,10803,10244,3796,2873,Tag0,unknown
1545011817138,0,32,7.03125E-6,38,53,72,181937,16244,16746399,5250,10803,10244,3796,2873,Tag0,unknown
1545011817138,0,59,1.29638671875E-5,38,53,72,181937,16244,16746399,5250,10803,10244,3796,2873,Tag0,unknown
1545011817138,0,98,2.1533203125E-5,38,53,72,181937,16244,16746399,5250,10803,10244,3796,2873,Tag0,unknown
1545011817139,0,86,1.8896484375000003E-5,38,53,72,181937,16244,16746399,5250,10803,10244,3796,2873,Tag0,unknown
1545011817139,0,43,9.448242187500001E-6,38,53,72,181937,16244,16746399,5250,10803,10244,3796,2873,Tag0,unknown
1545011817140,0,27,5.9326171875000005E-6,38,53,72,181937,16244,16746399,5250,10803,10244,3796,2873,Tag0,unknown
1545011817140,0,67,1.4721679687500002E-5,38,53,72,181937,16244,16746399,5250,10803,10244,3796,2873,Tag0,unknown
1545011817153,0,107,2.35107421875E-5,38,53,72,181937,16244,16746399,5250,10803,10244,3796,2873,Tag0,unknown
1545011817153,0,102,2.2412109374999998E-5,38,53,72,181937,16244,16746399,5250,10803,10244,3796,2873,Tag0,unknown
1545011817153,0,61,1.34033203125E-5,38,53,72,181937,16244,16746399,5250,10803,10244,3796,2873,Tag0,unknown
1545011817153,0,38,8.349609375E-6,38,53,72,181937,16244,16746399,5250,10803,10244,3796,2873,Tag0,unknown
1545011817153,0,65,1.42822265625E-5,38,53,72,181937,16244,16746399,5250,10803,10244,3796,2873,Tag0,unknown
1545011817154,0,98,2.1533203125E-5,38,53,72,181937,16244,16746399,5250,10803,10244,3796,2873,Tag0,unknown
1545011817154,0,88,1.93359375E-5,38,53,72,181937,16244,16746399,5250,10803,10244,3796,2873,Tag0,unknown
1545011817154,0,41,9.008789062499999E-6,38,53,72,181937,16244,16746399,5250,10803,10244,3796,2873,Tag0,unknown
1545011817168,0,2,4.39453125E-7,38,53,72,181937,16244,16746399,5250,10803,10244,3796,2873,Tag0,unknown
1545011817168,0,17,3.7353515625000003E-6,38,53,72,181937,16244,16746399,5250,10803,10244,3796,2873,Tag0,unknown
1545011817169,0,59,1.29638671875E-5,38,53,72,181937,16244,16746399,5250,10803,10244,3796,2873,Tag0,unknown
1545011817169,0,69,1.51611328125E-5,38,53,72,181937,16244,16746399,5250,10803,10244,3796,2873,Tag0,unknown
1545011817170,0,33,7.2509765625E-6,38,53,72,181937,16244,16746399,5250,10803,10244,3796,2873,Tag0,unknown
1545011817170,0,3,6.591796875E-7,38,53,72,181937,16244,16746399,5250,10803,10244,3796,2873,Tag0,unknown
1545011817170,0,20,4.39453125E-6,38,53,72,181937,16244,16746399,5250,10803,10244,3796,2873,Tag0,unknown
1545011817188,0,68,1.4941406250000001E-5,38,53,72,181937,16244,16746399,5250,10803,10244,3796,2873,Tag0,unknown
1545011817188,0,81,1.77978515625E-5,38,53,72,181937,16244,16746399,5250,10803,10244,3796,2873,Tag0,unknown
1545011817189,0,48,1.0546875E-5,38,53,72,181937,16244,16746399,5250,10803,10244,3796,2873,Tag0,unknown
1545011817189,0,22,4.833984375E-6,38,53,72,181937,16244,16746399,5250,10803,10244,3796,2873,Tag0,unknown
1545011817189,0,33,7.2509765625E-6,38,53,72,181937,16244,16746399,5250,10803,10244,3796,2873,Tag0,unknown
1545011817189,0,70,1.5380859375E-5,38,53,72,181937,16244,16746399,5250,10803,10244,3796,2873,Tag0,unknown
1545011817190,0,85,1.86767578125E-5,38,53,72,181937,16244,16746399,5250,10803,10244,3796,2873,Tag0,unknown
1545011817190,0,59,1.29638671875E-5,38,53,72,181937,16244,16746399,5250,10803,10244,3796,2873,Tag0,unknown
1545011817190,0,34,7.4707031250000005E-6,38,53,72,181937,16244,16746399,5250,10803,10244,3796,2873,Tag0,unknown
1545011817190,0,50,1.0986328125E-5,38,53,72,181937,16244,16746399,5250,10803,10244,3796,2873,Tag0,unknown
1545011817204,0,88,1.93359375E-5,38,53,72,181937,16244,16746399,5250,10803,10244,3796,2873,Tag0,unknown
1545011817204,0,103,2.26318359375E-5,38,53,72,181937,16244,16746399,5250,10803,10244,3796,2873,Tag0,unknown
1545011817205,0,83,1.82373046875E-5,38,53,72,181937,16244,16746399,5250,10803,10244,3796,2873,Tag0,unknown
1545011817205,0,43,9.448242187500001E-6,38,53,72,181937,16244,16746399,5250,10803,10244,3796,2873,Tag0,unknown
1545011817205,0,28,6.15234375E-6,38,53,72,181937,16244,16746399,5250,10803,10244,3796,2873,Tag0,unknown
1545011817205,0,69,1.51611328125E-5,38,53,72,181937,16244,16746399,5250,10803,10244,3796,2873,Tag0,unknown
1545011817206,0,104,2.28515625E-5,38,53,72,181937,16244,16746399,5250,10803,10244,3796,2873,Tag0,unknown
1545011817206,0,85,1.86767578125E-5,38,53,72,181937,16244,16746399,5250,10803,10244,3796,2873,Tag0,unknown
1545011817206,0,37,8.1298828125E-6,38,53,72,181937,16244,16746399,5250,10803,10244,3796,2873,Tag0,unknown
1545011817217,0,32,7.03125E-6,38,53,72,181937,16244,16746399,5250,10803,10244,3796,2873,Tag0,unknown
1545011817218,0,86,1.8896484375000003E-5,38,53,72,181937,16244,16746399,5250,10803,10244,3796,2873,Tag0,unknown
1545011817218,0,121,2.6586914062500003E-5,38,53,72,181937,16244,16746399,5250,10803,10244,3796,2873,Tag0,unknown
1545011817218,0,99,2.1752929687500003E-5,38,53,72,181937,16244,16746399,5250,10803,10244,3796,2873,Tag0,unknown
1545011817219,0,61,1.34033203125E-5,38,53,72,181937,16244,16746399,5250,10803,10244,3796,2873,Tag0,unknown
1545011817219,0,59,1.29638671875E-5,38,53,72,181937,16244,16746399,5250,10803,10244,3796,2873,Tag0,unknown
1545011817219,0,90,1.9775390625E-5,38,53,72,181937,16244,16746399,5250,10803,10244,3796,2873,Tag0,unknown
1545011817235,0,116,2.548828125E-5,38,53,72,181937,16244,16746399,5250,10803,10244,3796,2873,Tag0,unknown
1545011817235,0,101,2.2192382812500002E-5,38,53,72,181937,16244,16746399,5250,10803,10244,3796,2873,Tag0,unknown
1545011817236,0,59,1.29638671875E-5,38,53,72,181937,16244,16746399,5250,10803,10244,3796,2873,Tag0,unknown
1545011817236,0,51,1.1206054687499999E-5,38,53,72,181937,16244,16746399,5250,10803,10244,3796,2873,Tag0,unknown
1545011817236,0,83,1.82373046875E-5,38,53,72,181937,16244,16746399,5250,10803,10244,3796,2873,Tag0,unknown
1545011817239,0,108,2.3730468750000002E-5,38,53,72,181937,16244,16746399,5250,10803,10244,3796,2873,Tag0,unknown
1545011817239,0,103,2.26318359375E-5,38,53,72,181937,16244,16746399,5250,10803,10244,3796,2873,Tag0,unknown
1545011817239,0,75,1.64794921875E-5,38,53,72,181937,16244,16746399,5250,10803,10244,3796,2873,Tag0,unknown
1545011817240,0,68,1.4941406250000001E-5,38,53,72,181937,16244,16746399,5250,10803,10244,3796,2873,Tag0,unknown
1545011817251,0,90,1.9775390625E-5,38,53,72,181937,16244,16746399,5250,10803,10244,3796,2873,Tag0,unknown
1545011817252,0,118,2.5927734375E-5,38,53,72,181937,16244,16746399,5250,10803,10244,3796,2873,Tag0,unknown
1545011817252,0,113,2.48291015625E-5,38,53,72,181937,16244,16746399,5250,10803,10244,3796,2873,Tag0,unknown
1545011817253,0,85,1.86767578125E-5,38,53,72,181937,16244,16746399,5250,10803,10244,3796,2873,Tag0,unknown
1545011817253,0,71,1.56005859375E-5,38,53,72,181937,16244,16746399,5250,10803,10244,3796,2873,Tag0,unknown
1545011817253,0,89,1.95556640625E-5,38,53,72,181937,16244,16746399,5250,10803,10244,3796,2873,Tag0,unknown
1545011817253,0,122,2.6806640625E-5,38,53,72,181937,16244,16746399,5250,10803,10244,3796,2873,Tag0,unknown
1545011817254,0,-123,-2.70263671875E-5,38,53,72,181937,16244,16746399,5250,10803,10244,3796,2873,Tag0,unknown
1545011817254,0,97,2.13134765625E-5,38,53,72,181937,16244,16746399,5250,10803,10244,3796,2873,Tag0,unknown
1545011817268,0,54,1.1865234375000001E-5,38,53,72,181937,16244,16746399,5250,10803,10244,3796,2873,Tag0,unknown
1545011817268,0,56,1.23046875E-5,38,53,72,181937,16244,16746399,5250,10803,10244,3796,2873,Tag0,unknown
1545011817268,0,90,1.9775390625E-5,38,53,72,181937,16244,16746399,5250,10803,10244,3796,2873,Tag0,unknown
1545011817269,0,100,2.197265625E-5,38,53,72,181937,16244,16746399,5250,10803,10244,3796,2873,Tag0,unknown
1545011817269,0,67,1.4721679687500002E-5,38,53,72,181937,16244,16746399,5250,10803,10244,3796,2873,Tag0,unknown
1545011817269,0,33,7.2509765625E-6,38,53,72,181937,16244,16746399,5250,10803,10244,3796,2873,Tag0,unknown
1545011817269,0,32,7.03125E-6,38,53,72,181937,16244,16746399,5250,10803,10244,3796,2873,Tag0,unknown
1545011817288,0,68,1.4941406250000001E-5,38,53,72,181937,16244,16746399,5250,10803,10244,3796,2873,Tag0,unknown
1545011817290,0,91,1.99951171875E-5,38,53,72,181937,16244,16746399,5250,10803,10244,3796,2873,Tag0,unknown
1545011817291,0,72,1.58203125E-5,38,53,72,181937,16244,16746399,5250,10803,10244,3796,2873,Tag0,unknown
1545011817291,0,39,8.5693359375E-6,38,53,72,181937,16244,16746399,5250,10803,10244,3796,2873,Tag0,unknown
1545011817291,0,40,8.7890625E-6,38,53,72,181937,16244,16746399,5250,10803,10244,3796,2873,Tag0,unknown
1545011817291,0,73,1.6040039062500002E-5,38,53,72,181937,16244,16746399,5250,10803,10244,3796,2873,Tag0,unknown
1545011817291,0,84,1.8457031250000004E-5,38,53,72,181937,16244,16746399,5250,10803,10244,3796,2873,Tag0,unknown
1545011817292,0,54,1.1865234375000001E-5,38,53,72,181937,16244,16746399,5250,10803,10244,3796,2873,Tag0,unknown
1545011817292,0,19,4.1748046875E-6,38,53,72,181937,16244,16746399,5250,10803,10244,3796,2873,Tag0,unknown
1545011817292,0,17,3.7353515625000003E-6,38,53,72,181937,16244,16746399,5250,10803,10244,3796,2873,Tag0,unknown
1545011817292,0,41,9.008789062499999E-6,38,53,72,181937,16244,16746399,5250,10803,10244,3796,2873,Tag0,unknown
1545011817305,0,60,1.318359375E-5,38,53,72,181937,16244,16746399,5250,10803,10244,3796,2873,Tag0,unknown
1545011817306,0,48,1.0546875E-5,38,53,72,181937,16244,16746399,5250,10803,10244,3796,2873,Tag0,unknown
1545011817306,0,32,7.03125E-6,38,53,72,181937,16244,16746399,5250,10803,10244,3796,2873,Tag0,unknown
1545011817306,0,34,7.4707031250000005E-6,38,53,72,181937,16244,16746399,5250,10803,10244,3796,2873,Tag0,unknown
1545011817307,0,54,1.1865234375000001E-5,38,53,72,181937,16244,16746399,5250,10803,10244,3796,2873,Tag0,unknown
1545011817307,0,65,1.42822265625E-5,38,53,72,181937,16244,16746399,5250,10803,10244,3796,2873,Tag0,unknown
1545011817307,0,45,9.8876953125E-6,38,53,72,181937,16244,16746399,5250,10803,10244,3796,2873,Tag0,unknown
1545011817307,0,23,5.0537109375E-6,38,53,72,181937,16244,16746399,5250,10803,10244,3796,2873,Tag0,unknown
1545011817317,0,28,6.15234375E-6,38,53,72,181937,16244,16746399,5250,10803,10244,3796,2873,Tag0,unknown
1545011817317,0,71,1.56005859375E-5,38,53,72,181937,16244,16746399,5250,10803,10244,3796,2873,Tag0,unknown
1545011817318,0,107,2.35107421875E-5,38,53,72,181937,16244,16746399,5250,10803,10244,3796,2873,Tag0,unknown
1545011817318,0,97,2.13134765625E-5,38,53,72,181937,16244,16746399,5250,10803,10244,3796,2873,Tag0,unknown
1545011817318,0,49,1.07666015625E-5,38,53,72,181937,16244,16746399,5250,10803,10244,3796,2873,Tag0,unknown
1545011817319,0,12,2.63671875E-6,38,53,72,181937,16244,16746399,5250,10803,10244,3796,2873,Tag0,unknown
1545011817319,0,26,5.712890625E-6,38,53,72,181937,16244,16746399,5250,10803,10244,3796,2873,Tag0,unknown
1545011817319,0,70,1.5380859375E-5,38,53,72,181937,16244,16746399,5250,10803,10244,3796,2873,Tag0,unknown
1545011817340,0,77,1.69189453125E-5,38,53,72,181937,16244,16746399,5250,10803,10244,3796,2873,Tag0,unknown
1545011817341,0,48,1.0546875E-5,38,53,72,181937,16244,16746399,5250,10803,10244,3796,2873,Tag0,unknown
1545011817341,0,37,8.1298828125E-6,38,53,72,181937,16244,16746399,5250,10803,10244,3796,2873,Tag0,unknown
1545011817344,0,65,1.42822265625E-5,38,53,72,181937,16244,16746399,5250,10803,10244,3796,2873,Tag0,unknown
1545011817344,0,99,2.1752929687500003E-5,38,53,72,181937,16244,16746399,5250,10803,10244,3796,2873,Tag0,unknown
1545011817345,0,93,2.04345703125E-5,38,53,72,181937,16244,16746399,5250,10803,10244,3796,2873,Tag0,unknown
1545011817345,0,58,1.2744140625E-5,38,53,72,181937,16244,16746399,5250,10803,10244,3796,2873,Tag0,unknown
1545011817345,0,42,9.228515625000002E-6,38,53,72,181937,16244,16746399,5250,10803,10244,3796,2873,Tag0,unknown
1545011817345,0,69,1.51611328125E-5,38,53,72,181937,16244,16746399,5250,10803,10244,3796,2873,Tag0,unknown
1545011817345,0,103,2.26318359375E-5,38,53,72,181937,16244,16746399,5250,10803,10244,3796,2873,Tag0,unknown
1545011817345,0,90,1.9775390625E-5,38,53,72,181937,16244,16746399,5250,10803,10244,3796,2873,Tag0,unknown
1545011817351,0,43,9.448242187500001E-6,38,53,72,181937,16244,16746399,5250,10803,10244,3796,2873,Tag0,unknown
1545011817351,0,13,2.8564453125E-6,38,53,72,181937,16244,16746399,5250,10803,10244,3796,2873,Tag0,unknown
1545011817351,0,29,6.3720703125E-6,38,53,72,181937,16244,16746399,5250,10803,10244,3796,2873,Tag0,unknown
1545011817351,0,83,1.82373046875E-5,38,53,72,181937,16244,16746399,5250,10803,10244,3796,2873,Tag0,unknown
1545011817352,0,108,2.3730468750000002E-5,38,53,72,181937,16244,16746399,5250,10803,10244,3796,2873,Tag0,unknown
1545011817352,0,73,1.6040039062500002E-5,38,53,72,181937,16244,16746399,5250,10803,10244,3796,2873,Tag0,unknown
1545011817367,0,24,5.2734375E-6,38,53,72,181937,16244,16746399,5250,10803,10244,3796,2873,Tag0,unknown
1545011817368,0,32,7.03125E-6,38,53,72,181937,16244,16746399,5250,10803,10244,3796,2873,Tag0,unknown
1545011817368,0,75,1.64794921875E-5,38,53,72,181937,16244,16746399,5250,10803,10244,3796,2873,Tag0,unknown
1545011817368,0,98,2.1533203125E-5,38,53,72,181937,16244,16746399,5250,10803,10244,3796,2873,Tag0,unknown
1545011817368,0,75,1.64794921875E-5,38,53,72,181937,16244,16746399,5250,10803,10244,3796,2873,Tag0,unknown
1545011817369,0,43,9.448242187500001E-6,38,53,72,181937,16244,16746399,5250,10803,10244,3796,2873,Tag0,unknown
1545011817369,0,43,9.448242187500001E-6,38,53,72,181937,16244,16746399,5250,10803,10244,3796,2873,Tag0,unknown
1545011817369,0,82,1.8017578124999998E-5,38,53,72,181937,16244,16746399,5250,10803,10244,3796,2873,Tag0,unknown
1545011817383,0,107,2.35107421875E-5,38,53,72,181937,16244,16746399,5250,10803,10244,3796,2873,Tag0,unknown
1545011817384,0,82,1.8017578124999998E-5,38,53,72,181937,16244,16746399,5250,10803,10244,3796,2873,Tag0,unknown
1545011817386,0,37,8.1298828125E-6,38,53,72,181937,16244,16746399,5250,10803,10244,3796,2873,Tag0,unknown
1545011817387,0,29,6.3720703125E-6,38,53,72,181937,16244,16746399,5250,10803,10244,3796,2873,Tag0,unknown
1545011817387,0,64,1.40625E-5,38,53,72,181937,16244,16746399,5250,10803,10244,3796,2873,Tag0,unknown
1545011817387,0,92,2.021484375E-5,38,53,72,181937,16244,16746399,5250,10803,10244,3796,2873,Tag0,unknown
1545011817387,0,80,1.7578125E-5,38,53,72,181937,16244,16746399,5250,10803,10244,3796,2873,Tag0,unknown
1545011817387,0,42,9.228515625000002E-6,38,53,72,181937,16244,16746399,5250,10803,10244,3796,2873,Tag0,unknown
1545011817401,0,24,5.2734375E-6,38,53,72,181937,16244,16746399,5250,10803,10244,3796,2873,Tag0,unknown
1545011817401,0,44,9.66796875E-6,38,53,72,181937,16244,16746399,5250,10803,10244,3796,2873,Tag0,unknown
1545011817401,0,71,1.56005859375E-5,38,53,72,181937,16244,16746399,5250,10803,10244,3796,2873,Tag0,unknown
1545011817402,0,66,1.4501953125E-5,38,53,72,181937,16244,16746399,5250,10803,10244,3796,2873,Tag0,unknown
1545011817402,0,39,8.5693359375E-6,38,53,72,181937,16244,16746399,5250,10803,10244,3796,2873,Tag0,unknown
1545011817402,0,34,7.4707031250000005E-6,38,53,72,181937,16244,16746399,5250,10803,10244,3796,2873,Tag0,unknown
1545011817402,0,59,1.29638671875E-5,38,53,72,181937,16244,16746399,5250,10803,10244,3796,2873,Tag0,unknown
1545011817402,0,83,1.82373046875E-5,38,53,72,181937,16244,16746399,5250,10803,10244,3796,2873,Tag0,unknown
1545011817403,0,66,1.4501953125E-5,38,53,72,181937,16244,16746399,5250,10803,10244,3796,2873,Tag0,unknown
1545011817403,0,26,5.712890625E-6,38,53,72,181937,16244,16746399,5250,10803,10244,3796,2873,Tag0,unknown
1545011817417,0,7,1.5380859375E-6,38,53,72,181937,16244,16746399,5250,10803,10244,3796,2873,Tag0,unknown
1545011817417,0,22,4.833984375E-6,38,53,72,181937,16244,16746399,5250,10803,10244,3796,2873,Tag0,unknown
1545011817420,0,52,1.142578125E-5,38,53,72,181937,16244,16746399,5250,10803,10244,3796,2873,Tag0,unknown
1545011817420,0,61,1.34033203125E-5,38,53,72,181937,16244,16746399,5250,10803,10244,3796,2873,Tag0,unknown
1545011817420,0,50,1.0986328125E-5,38,53,72,181937,16244,16746399,5250,10803,10244,3796,2873,Tag0,unknown
1545011817420,0,26,5.712890625E-6,38,53,72,181937,16244,16746399,5250,10803,10244,3796,2873,Tag0,unknown
1545011817421,0,27,5.9326171875000005E-6,38,53,72,181937,16244,16746399,5250,10803,10244,3796,2873,Tag0,unknown
1545011817434,0,52,1.142578125E-5,38,53,72,181937,16244,16746399,5250,10803,10244,3796,2873,Tag0,unknown
1545011817483,0,53,1.1645507812500002E-5,38,53,72,181937,16244,16746399,5250,10803,10244,3796,2873,Tag0,unknown
1545011817484,0,27,5.9326171875000005E-6,38,53,72,181937,16244,16746399,5250,10803,10244,3796,2873,Tag0,unknown
1545011817486,0,9,1.9775390625E-6,38,53,72,181937,16244,16746399,5250,10803,10244,3796,2873,Tag0,unknown
1545011817487,0,17,3.7353515625000003E-6,38,53,72,181937,16244,16746399,5250,10803,10244,3796,2873,Tag0,unknown
1545011817487,0,51,1.1206054687499999E-5,38,53,72,181937,16244,16746399,5250,10803,10244,3796,2873,Tag0,unknown
1545011817487,0,60,1.318359375E-5,38,53,72,181937,16244,16746399,5250,10803,10244,3796,2873,Tag0,unknown
1545011817487,0,35,7.6904296875E-6,38,53,72,181937,16244,16746399,5250,10803,10244,3796,2873,Tag0,unknown
1545011817487,0,-258,-5.6689453125000004E-5,38,53,72,181937,16244,16746399,5250,10803,10244,3796,2873,Tag0,unknown
1545011817487,0,-276,-6.064453125E-5,38,53,72,181937,16244,16746399,5250,10803,10244,3796,2873,Tag0,unknown
1545011817488,0,-257,-5.64697265625E-5,38,53,72,181937,16244,16746399,5250,10803,10244,3796,2873,Tag0,unknown
1545011817488,0,9,1.9775390625E-6,38,53,72,181937,16244,16746399,5250,10803,10244,3796,2873,Tag0,unknown
1545011817488,0,-266,-5.8447265625E-5,38,53,72,181937,16244,16746399,5250,10803,10244,3796,2873,Tag0,unknown
1545011817488,0,-291,-6.39404296875E-5,38,53,72,181937,16244,16746399,5250,10803,10244,3796,2873,Tag0,unknown
1545011817488,0,-285,-6.26220703125E-5,38,53,72,181937,16244,16746399,5250,10803,10244,3796,2873,Tag0,unknown
1545011817489,0,5,1.0986328125E-6,38,53,72,181937,16244,16746399,5250,10803,10244,3796,2873,Tag0,unknown
1545011817489,0,39,8.5693359375E-6,38,53,72,181937,16244,16746399,5250,10803,10244,3796,2873,Tag0,unknown
1545011817489,0,33,7.2509765625E-6,38,53,72,181937,16244,16746399,5250,10803,10244,3796,2873,Tag0,unknown
1545011817489,0,-257,-5.64697265625E-5,38,53,72,181937,16244,16746399,5250,10803,10244,3796,2873,Tag0,unknown
1545011817489,0,-266,-5.8447265625E-5,38,53,72,181937,16244,16746399,5250,10803,10244,3796,2873,Tag0,unknown
1545011817489,0,16,3.515625E-6,38,53,72,181937,16244,16746399,5250,10803,10244,3796,2873,Tag0,unknown
1545011817490,0,41,9.008789062499999E-6,38,53,72,181937,16244,16746399,5250,10803,10244,3796,2873,Tag0,unknown
1545011817490,0,40,8.7890625E-6,38,53,72,181937,16244,16746399,5250,10803,10244,3796,2873,Tag0,unknown
1545011817490,0,21,4.614257812500001E-6,38,53,72,181937,16244,16746399,5250,10803,10244,3796,2873,Tag0,unknown
1545011817490,0,4,8.7890625E-7,38,53,72,181937,16244,16746399,5250,10803,10244,3796,2873,Tag0,unknown
1545011817490,0,24,5.2734375E-6,38,53,72,181937,16244,16746399,5250,10803,10244,3796,2873,Tag0,unknown
1545011817491,0,56,1.23046875E-5,38,53,72,181937,16244,16746399,5250,10803,10244,3796,2873,Tag0,unknown
1545011817491,0,53,1.1645507812500002E-5,38,53,72,181937,16244,16746399,5250,10803,10244,3796,2873,Tag0,unknown
1545011817491,0,24,5.2734375E-6,38,53,72,181937,16244,16746399,5250,10803,10244,3796,2873,Tag0,unknown
1545011817492,0,12,2.63671875E-6,38,53,72,181937,16244,16746399,5250,10803,10244,3796,2873,Tag0,unknown
1545011817492,0,37,8.1298828125E-6,38,53,72,181937,16244,16746399,5250,10803,10244,3796,2873,Tag0,unknown
1545011817492,0,68,1.4941406250000001E-5,38,53,72,181937,16244,16746399,5250,10803,10244,3796,2873,Tag0,unknown
1545011817492,0,59,1.29638671875E-5,38,53,72,181937,16244,16746399,5250,10803,10244,3796,2873,Tag0,unknown
1545011817501,0,28,6.15234375E-6,38,53,72,181937,16244,16746399,5250,10803,10244,3796,2873,Tag0,unknown
1545011817501,0,12,2.63671875E-6,38,53,72,181937,16244,16746399,5250,10803,10244,3796,2873,Tag0,unknown
1545011817501,0,27,5.9326171875000005E-6,38,53,72,181937,16244,16746399,5250,10803,10244,3796,2873,Tag0,unknown
1545011817501,0,56,1.23046875E-5,38,53,72,181937,16244,16746399,5250,10803,10244,3796,2873,Tag0,unknown
1545011817501,0,55,1.20849609375E-5,38,53,72,181937,16244,16746399,5250,10803,10244,3796,2873,Tag0,unknown
1545011817502,0,23,5.0537109375E-6,38,53,72,181937,16244,16746399,5250,10803,10244,3796,2873,Tag0,unknown
1545011817502,0,-263,-5.7788085937500005E-5,38,53,72,181937,16244,16746399,5250,10803,10244,3796,2873,Tag0,unknown
1545011817502,0,-263,-5.7788085937500005E-5,38,53,72,181937,16244,16746399,5250,10803,10244,3796,2873,Tag0,unknown
1545011817502,0,19,4.1748046875E-6,38,53,72,181937,16244,16746399,5250,10803,10244,3796,2873,Tag0,unknown
1545011817502,0,28,6.15234375E-6,38,53,72,181937,16244,16746399,5250,10803,10244,3796,2873,Tag0,unknown
1545011817503,0,13,2.8564453125E-6,38,53,72,181937,16244,16746399,5250,10803,10244,3796,2873,Tag0,unknown
1545011817516,0,8,1.7578125E-6,38,53,72,181937,16244,16746399,5250,10803,10244,3796,2873,Tag0,unknown
1545011817517,0,38,8.349609375E-6,38,53,72,181937,16244,16746399,5250,10803,10244,3796,2873,Tag0,unknown
1545011817517,0,96,2.109375E-5,38,53,72,181937,16244,16746399,5250,10803,10244,3796,2873,Tag0,unknown
1545011817521,0,117,2.5708007812499998E-5,38,53,72,181937,16244,16746399,5250,10803,10244,3796,2873,Tag0,unknown
1545011817521,0,74,1.6259765625E-5,38,53,72,181937,16244,16746399,5250,10803,10244,3796,2873,Tag0,unknown
1545011817521,0,27,5.9326171875000005E-6,38,53,72,181937,16244,16746399,5250,10803,10244,3796,2873,Tag0,unknown
1545011817521,0,25,5.4931640625E-6,38,53,72,181937,16244,16746399,5250,10803,10244,3796,2873,Tag0,unknown
1545011817536,0,59,1.29638671875E-5,38,53,72,181937,16244,16746399,5250,10803,10244,3796,2873,Tag0,unknown
1545011817537,0,74,1.6259765625E-5,38,53,72,181937,16244,16746399,5250,10803,10244,3796,2873,Tag0,unknown
1545011817537,0,56,1.23046875E-5,38,53,72,181937,16244,16746399,5250,10803,10244,3796,2873,Tag0,unknown
1545011817537,0,25,5.4931640625E-6,38,53,72,181937,16244,16746399,5250,10803,10244,3796,2873,Tag0,unknown
1545011817537,0,36,7.91015625E-6,38,53,72,181937,16244,16746399,5250,10803,10244,3796,2873,Tag0,unknown
1545011817538,0,85,1.86767578125E-5,38,53,72,181937,16244,16746399,5250,10803,10244,3796,2873,Tag0,unknown
1545011817538,0,113,2.48291015625E-5,38,53,72,181937,16244,16746399,5250,10803,10244,3796,2873,Tag0,unknown
1545011817538,0,83,1.82373046875E-5,38,53,72,181937,16244,16746399,5250,10803,10244,3796,2873,Tag0,unknown
1545011817538,0,48,1.0546875E-5,38,53,72,181937,16244,16746399,5250,10803,10244,3796,2873,Tag0,unknown
1545011817538,0,40,8.7890625E-6,38,53,72,181937,16244,16746399,5250,10803,10244,3796,2873,Tag0,unknown
1545011817539,0,72,1.58203125E-5,38,53,72,181937,16244,16746399,5250,10803,10244,3796,2873,Tag0,unknown
1545011817551,0,96,2.109375E-5,38,53,72,181937,16244,16746399,5250,10803,10244,3796,2873,Tag0,unknown
1545011817551,0,75,1.64794921875E-5,38,53,72,181937,16244,16746399,5250,10803,10244,3796,2873,Tag0,unknown
1545011817554,0,40,8.7890625E-6,38,53,72,181937,16244,16746399,5250,10803,10244,3796,2873,Tag0,unknown
1545011817555,0,27,5.9326171875000005E-6,38,53,72,181937,16244,16746399,5250,10803,10244,3796,2873,Tag0,unknown
1545011817555,0,55,1.20849609375E-5,38,53,72,181937,16244,16746399,5250,10803,10244,3796,2873,Tag0,unknown
1545011817555,0,76,1.669921875E-5,38,53,72,181937,16244,16746399,5250,10803,10244,3796,2873,Tag0,unknown
1545011817555,0,68,1.4941406250000001E-5,38,53,72,181937,16244,16746399,5250,10803,10244,3796,2873,Tag0,unknown
1545011817568,0,51,1.1206054687499999E-5,38,53,72,181937,16244,16746399,5250,10803,10244,3796,2873,Tag0,unknown
1545011817568,0,45,9.8876953125E-6,38,53,72,181937,16244,16746399,5250,10803,10244,3796,2873,Tag0,unknown
1545011817568,0,59,1.29638671875E-5,38,53,72,181937,16244,16746399,5250,10803,10244,3796,2873,Tag0,unknown
1545011817569,0,80,1.7578125E-5,38,53,72,181937,16244,16746399,5250,10803,10244,3796,2873,Tag0,unknown
1545011817569,0,72,1.58203125E-5,38,53,72,181937,16244,16746399,5250,10803,10244,3796,2873,Tag0,unknown
1545011817569,0,41,9.008789062499999E-6,38,53,72,181937,16244,16746399,5250,10803,10244,3796,2873,Tag0,unknown
1545011817569,0,28,6.15234375E-6,38,53,72,181937,16244,16746399,5250,10803,10244,3796,2873,Tag0,unknown
1545011817569,0,55,1.20849609375E-5,38,53,72,181937,16244,16746399,5250,10803,10244,3796,2873,Tag0,unknown
1545011817570,0,86,1.8896484375000003E-5,38,53,72,181937,16244,16746399,5250,10803,10244,3796,2873,Tag0,unknown
1545011817587,0,76,1.669921875E-5,38,53,72,181937,16244,16746399,5250,10803,10244,3796,2873,Tag0,unknown
1545011817587,0,43,9.448242187500001E-6,38,53,72,181937,16244,16746399,5250,10803,10244,3796,2873,Tag0,unknown
1545011817587,0,21,4.614257812500001E-6,38,53,72,181937,16244,16746399,5250,10803,10244,3796,2873,Tag0,unknown
1545011817587,0,35,7.6904296875E-6,38,53,72,181937,16244,16746399,5250,10803,10244,3796,2873,Tag0,unknown
1545011817591,0,75,1.64794921875E-5,38,53,72,181937,16244,16746399,5250,10803,10244,3796,2873,Tag0,unknown
1545011817602,0,76,1.669921875E-5,38,53,72,181937,16244,16746399,5250,10803,10244,3796,2873,Tag0,unknown
1545011817602,0,26,5.712890625E-6,38,53,72,181937,16244,16746399,5250,10803,10244,3796,2873,Tag0,unknown
1545011817602,0,-262,-5.7568359375E-5,38,53,72,181937,16244,16746399,5250,10803,10244,3796,2873,Tag0,unknown
1545011817602,0,19,4.1748046875E-6,38,53,72,181937,16244,16746399,5250,10803,10244,3796,2873,Tag0,unknown
1545011817603,0,80,1.7578125E-5,38,53,72,181937,16244,16746399,5250,10803,10244,3796,2873,Tag0,unknown
1545011817603,0,105,2.30712890625E-5,38,53,72,181937,16244,16746399,5250,10803,10244,3796,2873,Tag0,unknown
1545011817603,0,76,1.669921875E-5,38,53,72,181937,16244,16746399,5250,10803,10244,3796,2873,Tag0,unknown
1545011817603,0,41,9.008789062499999E-6,38,53,72,181937,16244,16746399,5250,10803,10244,3796,2873,Tag0,unknown
1545011817604,0,29,6.3720703125E-6,38,53,72,181937,16244,16746399,5250,10803,10244,3796,2873,Tag0,unknown
1545011817604,0,52,1.142578125E-5,38,53,72,181937,16244,16746399,5250,10803,10244,3796,2873,Tag0,unknown
1545011817604,0,84,1.8457031250000004E-5,38,53,72,181937,16244,16746399,5250,10803,10244,3796,2873,Tag0,unknown
1545011817604,0,85,1.86767578125E-5,38,53,72,181937,16244,16746399,5250,10803,10244,3796,2873,Tag0,unknown
1545011817618,0,59,1.29638671875E-5,38,53,72,181937,16244,16746399,5250,10803,10244,3796,2873,Tag0,unknown
1545011817619,0,52,1.142578125E-5,38,53,72,181937,16244,16746399,5250,10803,10244,3796,2873,Tag0,unknown
1545011817619,0,73,1.6040039062500002E-5,38,53,72,181937,16244,16746399,5250,10803,10244,3796,2873,Tag0,unknown
1545011817619,0,76,1.669921875E-5,38,53,72,181937,16244,16746399,5250,10803,10244,3796,2873,Tag0,unknown
1545011817619,0,55,1.20849609375E-5,38,53,72,181937,16244,16746399,5250,10803,10244,3796,2873,Tag0,unknown
1545011817619,0,35,7.6904296875E-6,38,53,72,181937,16244,16746399,5250,10803,10244,3796,2873,Tag0,unknown
1545011817620,0,39,8.5693359375E-6,38,53,72,181937,16244,16746399,5250,10803,10244,3796,2873,Tag0,unknown
1545011817620,0,70,1.5380859375E-5,38,53,72,181937,16244,16746399,5250,10803,10244,3796,2873,Tag0,unknown
1545011817634,0,88,1.93359375E-5,38,53,72,181937,16244,16746399,5250,10803,10244,3796,2873,Tag0,unknown
1545011817635,0,75,1.64794921875E-5,38,53,72,181937,16244,16746399,5250,10803,10244,3796,2873,Tag0,unknown
1545011817636,0,40,8.7890625E-6,38,53,72,181937,16244,16746399,5250,10803,10244,3796,2873,Tag0,unknown
1545011817636,0,21,4.614257812500001E-6,38,53,72,181937,16244,16746399,5250,10803,10244,3796,2873,Tag0,unknown
1545011817637,0,51,1.1206054687499999E-5,38,53,72,181937,16244,16746399,5250,10803,10244,3796,2873,Tag0,unknown
1545011817638,0,91,1.99951171875E-5,38,53,72,181937,16244,16746399,5250,10803,10244,3796,2873,Tag0,unknown
1545011817638,0,85,1.86767578125E-5,38,53,72,181937,16244,16746399,5250,10803,10244,3796,2873,Tag0,unknown
1545011817638,0,32,7.03125E-6,38,53,72,181937,16244,16746399,5250,10803,10244,3796,2873,Tag0,unknown
1545011817638,0,7,1.5380859375E-6,38,53,72,181937,16244,16746399,5250,10803,10244,3796,2873,Tag0,unknown
1545011817650,0,49,1.07666015625E-5,38,53,72,181937,16244,16746399,5250,10803,10244,3796,2873,Tag0,unknown
1545011817651,0,93,2.04345703125E-5,38,53,72,181937,16244,16746399,5250,10803,10244,3796,2873,Tag0,unknown
1545011817651,0,84,1.8457031250000004E-5,38,53,72,181937,16244,16746399,5250,10803,10244,3796,2873,Tag0,unknown
1545011817651,0,41,9.008789062499999E-6,38,53,72,181937,16244,16746399,5250,10803,10244,3796,2873,Tag0,unknown
1545011817651,0,23,5.0537109375E-6,38,53,72,181937,16244,16746399,5250,10803,10244,3796,2873,Tag0,unknown
1545011817651,0,49,1.07666015625E-5,38,53,72,181937,16244,16746399,5250,10803,10244,3796,2873,Tag0,unknown
1545011817652,0,92,2.021484375E-5,38,53,72,181937,16244,16746399,5250,10803,10244,3796,2873,Tag0,unknown
1545011817652,0,98,2.1533203125E-5,38,53,72,181937,16244,16746399,5250,10803,10244,3796,2873,Tag0,unknown
1545011817667,0,60,1.318359375E-5,38,53,72,181937,16244,16746399,5250,10803,10244,3796,2873,Tag0,unknown
1545011817668,0,35,7.6904296875E-6,38,53,72,181937,16244,16746399,5250,10803,10244,3796,2873,Tag0,unknown
1545011817668,0,43,9.448242187500001E-6,38,53,72,181937,16244,16746399,5250,10803,10244,3796,2873,Tag0,unknown
1545011817668,0,65,1.42822265625E-5,38,53,72,181937,16244,16746399,5250,10803,10244,3796,2873,Tag0,unknown
1545011817668,0,54,1.1865234375000001E-5,38,53,72,181937,16244,16746399,5250,10803,10244,3796,2873,Tag0,unknown
1545011817668,0,20,4.39453125E-6,38,53,72,181937,16244,16746399,5250,10803,10244,3796,2873,Tag0,unknown
1545011817669,0,-258,-5.6689453125000004E-5,38,53,72,181937,16244,16746399,5250,10803,10244,3796,2873,Tag0,unknown
1545011817669,0,16,3.515625E-6,38,53,72,181937,16244,16746399,5250,10803,10244,3796,2873,Tag0,unknown
1545011817669,0,56,1.23046875E-5,38,53,72,181937,16244,16746399,5250,10803,10244,3796,2873,Tag0,unknown
1545011817690,0,55,1.20849609375E-5,38,53,72,181937,16244,16746399,5250,10803,10244,3796,2873,Tag0,unknown
1545011817690,0,22,4.833984375E-6,38,53,72,181937,16244,16746399,5250,10803,10244,3796,2873,Tag0,unknown
1545011817691,0,-265,-5.82275390625E-5,38,53,72,181937,16244,16746399,5250,10803,10244,3796,2873,Tag0,unknown
1545011817691,0,-260,-5.712890625E-5,38,53,72,181937,16244,16746399,5250,10803,10244,3796,2873,Tag0,unknown
1545011817691,0,41,9.008789062499999E-6,38,53,72,181937,16244,16746399,5250,10803,10244,3796,2873,Tag0,unknown
1545011817691,0,64,1.40625E-5,38,53,72,181937,16244,16746399,5250,10803,10244,3796,2873,Tag0,unknown
1545011817691,0,27,5.9326171875000005E-6,38,53,72,181937,16244,16746399,5250,10803,10244,3796,2873,Tag0,unknown
1545011817692,0,-266,-5.8447265625E-5,38,53,72,181937,16244,16746399,5250,10803,10244,3796,2873,Tag0,unknown
1545011817701,0,-262,-5.7568359375E-5,38,53,72,181937,16244,16746399,5250,10803,10244,3796,2873,Tag0,unknown
1545011817701,0,37,8.1298828125E-6,38,53,72,181937,16244,16746399,5250,10803,10244,3796,2873,Tag0,unknown
1545011817701,0,51,1.1206054687499999E-5,38,53,72,181937,16244,16746399,5250,10803,10244,3796,2873,Tag0,unknown
1545011817701,0,21,4.614257812500001E-6,38,53,72,181937,16244,16746399,5250,10803,10244,3796,2873,Tag0,unknown
1545011817702,0,-266,-5.8447265625E-5,38,53,72,181937,16244,16746399,5250,10803,10244,3796,2873,Tag0,unknown
1545011817702,0,-269,-5.9106445312499996E-5,38,53,72,181937,16244,16746399,5250,10803,10244,3796,2873,Tag0,unknown
1545011817702,0,10,2.197265625E-6,38,53,72,181937,16244,16746399,5250,10803,10244,3796,2873,Tag0,unknown
1545011817702,0,38,8.349609375E-6,38,53,72,181937,16244,16746399,5250,10803,10244,3796,2873,Tag0,unknown
1545011817703,0,32,7.03125E-6,38,53,72,181937,16244,16746399,5250,10803,10244,3796,2873,Tag0,unknown
1545011817721,0,7,1.5380859375E-6,38,53,72,181937,16244,16746399,5250,10803,10244,3796,2873,Tag0,unknown
1545011817723,0,-261,-5.73486328125E-5,38,53,72,181937,16244,16746399,5250,10803,10244,3796,2873,Tag0,unknown
1545011817723,0,13,2.8564453125E-6,38,53,72,181937,16244,16746399,5250,10803,10244,3796,2873,Tag0,unknown
1545011817723,0,40,8.7890625E-6,38,53,72,181937,16244,16746399,5250,10803,10244,3796,2873,Tag0,unknown
1545011817724,0,36,7.91015625E-6,38,53,72,181937,16244,16746399,5250,10803,10244,3796,2873,Tag0,unknown
1545011817724,0,12,2.63671875E-6,38,53,72,181937,16244,16746399,5250,10803,10244,3796,2873,Tag0,unknown
