timestampMs,poorSignal,eegRawValue,eegRawValueVolts,attention,meditation,blinkStrength,delta,theta,alphaLow,alphaHigh,betaLow,betaHigh,gammaLow,gammaMid,tagEvent,location
1545011579628,0,115,2.52685546875E-5,74,74,41,16745324,16756690,9778,19638,6042,9437,4540,1933,Tag0,unknown
1545011579628,0,-120,-2.63671875E-5,74,74,41,16745324,16756690,9778,19638,6042,9437,4540,1933,Tag0,unknown
1545011579628,0,104,2.28515625E-5,74,74,41,16745324,16756690,9778,19638,6042,9437,4540,1933,Tag0,unknown
1545011579628,0,68,1.4941406250000001E-5,74,74,41,16745324,16756690,9778,19638,6042,9437,4540,1933,Tag0,unknown
1545011579629,0,84,1.8457031250000004E-5,74,74,41,16745324,16756690,9778,19638,6042,9437,4540,1933,Tag0,unknown
1545011579629,0,-117,-2.5708007812499998E-5,74,74,41,16745324,16756690,9778,19638,6042,9437,4540,1933,Tag0,unknown
1545011579629,0,-105,-2.30712890625E-5,74,74,41,16745324,16756690,9778,19638,6042,9437,4540,1933,Tag0,unknown
1545011579629,0,96,2.109375E-5,74,74,41,16745324,16756690,9778,19638,6042,9437,4540,1933,Tag0,unknown
1545011579629,0,35,7.6904296875E-6,74,74,41,16745324,16756690,9778,19638,6042,9437,4540,1933,Tag0,unknown
1545011579629,0,28,6.15234375E-6,74,74,41,16745324,16756690,9778,19638,6042,9437,4540,1933,Tag0,unknown
1545011579629,0,74,1.6259765625E-5,74,74,41,16745324,16756690,9778,19638,6042,9437,4540,1933,Tag0,unknown
1545011579629,0,92,2.021484375E-5,74,74,41,16745324,16756690,9778,19638,6042,9437,4540,1933,Tag0,unknown
1545011579629,0,51,1.1206054687499999E-5,74,74,41,16745324,16756690,9778,19638,6042,9437,4540,1933,Tag0,unknown
1545011579630,0,-260,-5.712890625E-5,74,74,41,16745324,16756690,9778,19638,6042,9437,4540,1933,Tag0,unknown
1545011579630,0,-263,-5.7788085937500005E-5,74,74,41,16745324,16756690,9778,19638,6042,9437,4540,1933,Tag0,unknown
1545011579630,0,40,8.7890625E-6,74,74,41,16745324,16756690,9778,19638,6042,9437,4540,1933,Tag0,unknown
1545011579630,0,74,1.6259765625E-5,74,74,41,16745324,16756690,9778,19638,6042,9437,4540,1933,Tag0,unknown
1545011579632,0,50,1.0986328125E-5,74,74,41,16745324,16756690,9778,19638,6042,9437,4540,1933,Tag0,unknown
1545011579633,0,-258,-5.6689453125000004E-5,74,74,41,16745324,16756690,9778,19638,6042,9437,4540,1933,Tag0,unknown
1545011579633,0,-276,-6.064453125E-5,74,74,41,16745324,16756690,9778,19638,6042,9437,4540,1933,Tag0,unknown
1545011579633,0,17,3.7353515625000003E-6,74,74,41,16745324,16756690,9778,19638,6042,9437,4540,1933,Tag0,unknown
1545011579633,0,60,1.318359375E-5,74,74,41,16745324,16756690,9778,19638,6042,9437,4540,1933,Tag0,unknown
1545011579633,0,54,1.1865234375000001E-5,74,74,41,16745324,16756690,9778,19638,6042,9437,4540,1933,Tag0,unknown
1545011579633,0,8,1.7578125E-6,74,74,41,16745324,16756690,9778,19638,6042,9437,4540,1933,Tag0,unknown
1545011579633,0,-269,-5.9106445312499996E-5,74,74,41,16745324,16756690,9778,19638,6042,9437,4540,1933,Tag0,unknown
1545011579633,0,27,5.9326171875000005E-6,74,74,41,16745324,16756690,9778,19638,6042,9437,4540,1933,Tag0,unknown
1545011579634,0,88,1.93359375E-5,74,74,41,16745324,16756690,9778,19638,6042,9437,4540,1933,Tag0,unknown
1545011579634,0,83,1.82373046875E-5,74,74,41,16745324,16756690,9778,19638,6042,9437,4540,1933,Tag0,unknown
1545011579634,0,23,5.0537109375E-6,74,74,41,16745324,16756690,9778,19638,6042,9437,4540,1933,Tag0,unknown
1545011579634,0,-260,-5.712890625E-5,74,74,41,16745324,16756690,9778,19638,6042,9437,4540,1933,Tag0,unknown
1545011579634,0,36,7.91015625E-6,74,74,41,16745324,16756690,9778,19638,6042,9437,4540,1933,Tag0,unknown
1545011579642,0,99,2.1752929687500003E-5,74,74,41,16745324,16756690,9778,19638,6042,9437,4540,1933,Tag0,unknown
1545011579642,0,108,2.3730468750000002E-5,74,74,41,16745324,16756690,9778,19638,6042,9437,4540,1933,Tag0,unknown
1545011579642,0,73,1.6040039062500002E-5,74,74,41,16745324,16756690,9778,19638,6042,9437,4540,1933,Tag0,unknown
1545011579643,0,54,1.1865234375000001E-5,74,74,41,16745324,16756690,9778,19638,6042,9437,4540,1933,Tag0,unknown
1545011579643,0,86,1.8896484375000003E-5,74,74,41,16745324,16756690,9778,19638,6042,9437,4540,1933,Tag0,unknown
1545011579643,0,-128,-2.8125E-5,74,74,41,16745324,16756690,9778,19638,6042,9437,4540,1933,Tag0,unknown
1545011579658,0,121,2.6586914062500003E-5,74,74,41,16745324,16756690,9778,19638,6042,9437,4540,1933,Tag0,unknown
1545011579659,0,75,1.64794921875E-5,74,74,41,16745324,16756690,9778,19638,6042,9437,4540,1933,Tag0,unknown
1545011579659,0,44,9.66796875E-6,74,74,41,16745324,16756690,9778,19638,6042,9437,4540,1933,Tag0,unknown
1545011579659,0,75,1.64794921875E-5,74,74,41,16745324,16756690,9778,19638,6042,9437,4540,1933,Tag0,unknown
1545011579659,0,-118,-2.5927734375E-5,74,74,41,16745324,16756690,9778,19638,6042,9437,4540,1933,Tag0,unknown
1545011579659,0,-105,-2.30712890625E-5,74,74,41,16745324,16756690,9778,19638,6042,9437,4540,1933,Tag0,unknown
1545011579659,0,101,2.2192382812500002E-5,74,74,41,16745324,16756690,9778,19638,6042,9437,4540,1933,Tag0,unknown
1545011579660,0,55,1.20849609375E-5,74,74,41,16745324,16756690,9778,19638,6042,9437,4540,1933,Tag0,unknown
1545011579674,0,76,1.669921875E-5,74,74,41,16745324,16756690,9778,19638,6042,9437,4540,1933,Tag0,unknown
1545011579675,0,-117,-2.5708007812499998E-5,74,74,41,16745324,16756690,9778,19638,6042,9437,4540,1933,Tag0,unknown
1545011579675,0,-93,-2.04345703125E-5,74,74,41,16745324,16756690,9778,19638,6042,9437,4540,1933,Tag0,unknown
1545011579675,0,119,2.6147460937500004E-5,74,74,41,16745324,16756690,9778,19638,6042,9437,4540,1933,Tag0,unknown
1545011579675,0,66,1.4501953125E-5,74,74,41,16745324,16756690,9778,19638,6042,9437,4540,1933,Tag0,unknown
1545011579675,0,69,1.51611328125E-5,74,74,41,16745324,16756690,9778,19638,6042,9437,4540,1933,Tag0,unknown
1545011579676,0,-127,-2.79052734375E-5,74,74,41,16745324,16756690,9778,19638,6042,9437,4540,1933,Tag0,unknown
1545011579676,0,-96,-2.109375E-5,74,74,41,16745324,16756690,9778,19638,6042,9437,4540,1933,Tag0,unknown
1545011579691,0,123,2.70263671875E-5,74,74,41,16745324,16756690,9778,19638,6042,9437,4540,1933,Tag0,unknown
1545011579691,0,80,1.7578125E-5,74,74,41,16745324,16756690,9778,19638,6042,9437,4540,1933,Tag0,unknown
1545011579692,0,85,1.86767578125E-5,74,74,41,16745324,16756690,9778,19638,6042,9437,4540,1933,Tag0,unknown
1545011579692,0,-122,-2.6806640625E-5,74,74,41,16745324,16756690,9778,19638,6042,9437,4540,1933,Tag0,unknown
1545011579751,0,-94,-2.0654296875000002E-5,74,74,41,16745324,16756690,9778,19638,6042,9437,4540,1933,Tag0,unknown
1545011579751,0,-123,-2.70263671875E-5,74,74,41,16745324,16756690,9778,19638,6042,9437,4540,1933,Tag0,unknown
1545011579817,0,88,1.93359375E-5,74,74,41,16745324,16756690,9778,19638,6042,9437,4540,1933,Tag0,unknown
1545011579858,0,83,1.82373046875E-5,74,74,41,16745324,16756690,9778,19638,6042,9437,4540,1933,Tag0,unknown
1545011579874,0,122,2.6806640625E-5,74,74,41,16745324,16756690,9778,19638,6042,9437,4540,1933,Tag0,unknown
1545011579875,0,-116,-2.548828125E-5,74,74,41,16745324,16756690,9778,19638,6042,9437,4540,1933,Tag0,unknown
1545011579875,0,100,2.197265625E-5,74,74,41,16745324,16756690,9778,19638,6042,9437,4540,1933,Tag0,unknown
1545011579877,0,50,1.0986328125E-5,74,74,41,16745324,16756690,9778,19638,6042,9437,4540,1933,Tag0,unknown
1545011579877,0,53,1.1645507812500002E-5,74,74,41,16745324,16756690,9778,19638,6042,9437,4540,1933,Tag0,unknown
1545011579877,0,103,2.26318359375E-5,74,74,41,16745324,16756690,9778,19638,6042,9437,4540,1933,Tag0,unknown
1545011579877,0,-128,-2.8125E-5,74,74,41,16745324,16756690,9778,19638,6042,9437,4540,1933,Tag0,unknown
1545011579878,0,83,1.82373046875E-5,74,74,41,16745324,16756690,9778,19638,6042,9437,4540,1933,Tag0,unknown
1545011579878,0,10,2.197265625E-6,74,74,41,16745324,16756690,9778,19638,6042,9437,4540,1933,Tag0,unknown
1545011579878,0,-277,-6.0864257812500005E-5,74,74,41,16745324,16756690,9778,19638,6042,9437,4540,1933,Tag0,unknown
1545011579878,0,11,2.4169921875E-6,74,74,41,16745324,16756690,9778,19638,6042,9437,4540,1933,Tag0,unknown
1545011579878,0,60,1.318359375E-5,74,74,41,16745324,16756690,9778,19638,6042,9437,4540,1933,Tag0,unknown
1545011579878,0,54,1.1865234375000001E-5,74,74,41,16745324,16756690,9778,19638,6042,9437,4540,1933,Tag0,unknown
1545011579879,0,8,1.7578125E-6,74,74,41,16745324,16756690,9778,19638,6042,9437,4540,1933,Tag0,unknown
1545011579879,0,-279,-6.13037109375E-5,74,74,41,16745324,16756690,9778,19638,6042,9437,4540,1933,Tag0,unknown
1545011579879,0,-258,-5.6689453125000004E-5,74,74,41,16745324,16756690,9778,19638,6042,9437,4540,1933,Tag0,unknown
1545011579879,0,49,1.07666015625E-5,74,74,41,16745324,16756690,9778,19638,6042,9437,4540,1933,Tag0,unknown
1545011579879,0,53,1.1645507812500002E-5,74,74,41,16745324,16756690,9778,19638,6042,9437,4540,1933,Tag0,unknown
1545011579879,0,11,2.4169921875E-6,74,74,41,16745324,16756690,9778,19638,6042,9437,4540,1933,Tag0,unknown
1545011579880,0,-273,-5.998535156250001E-5,74,74,41,16745324,16756690,9778,19638,6042,9437,4540,1933,Tag0,unknown
1545011579880,0,8,1.7578125E-6,74,74,41,16745324,16756690,9778,19638,6042,9437,4540,1933,Tag0,unknown
1545011579880,0,56,1.23046875E-5,74,74,41,16745324,16756690,9778,19638,6042,9437,4540,1933,Tag0,unknown
1545011579880,0,51,1.1206054687499999E-5,74,74,41,16745324,16756690,9778,19638,6042,9437,4540,1933,Tag0,unknown
1545011579880,0,-261,-5.73486328125E-5,74,74,41,16745324,16756690,9778,19638,6042,9437,4540,1933,Tag0,unknown
1545011579880,0,-295,-6.48193359375E-5,74,74,41,16745324,16756690,9778,19638,6042,9437,4540,1933,Tag0,unknown
1545011579881,0,-273,-5.998535156250001E-5,74,74,41,16745324,16756690,9778,19638,6042,9437,4540,1933,Tag0,unknown
1545011579881,0,33,7.2509765625E-6,74,74,41,16745324,16756690,9778,19638,6042,9437,4540,1933,Tag0,unknown
1545011579881,0,42,9.228515625000002E-6,74,74,41,16745324,16756690,9778,19638,6042,9437,4540,1933,Tag0,unknown
1545011579881,0,10,2.197265625E-6,74,74,41,16745324,16756690,9778,19638,6042,9437,4540,1933,Tag0,unknown
1545011579881,0,-285,-6.26220703125E-5,74,74,41,16745324,16756690,9778,19638,6042,9437,4540,1933,Tag0,unknown
1545011579892,0,-293,-6.43798828125E-5,74,74,41,16745324,16756690,9778,19638,6042,9437,4540,1933,Tag0,unknown
1545011579892,0,7,1.5380859375E-6,74,74,41,16745324,16756690,9778,19638,6042,9437,4540,1933,Tag0,unknown
1545011579892,0,28,6.15234375E-6,74,74,41,16745324,16756690,9778,19638,6042,9437,4540,1933,Tag0,unknown
1545011579892,0,-264,-5.80078125E-5,74,74,41,16745324,16756690,9778,19638,6042,9437,4540,1933,Tag0,unknown
1545011579893,0,-309,-6.78955078125E-5,74,74,41,16745324,16756690,9778,19638,6042,9437,4540,1933,Tag0,unknown
1545011579893,0,-298,-6.5478515625E-5,74,74,41,16745324,16756690,9778,19638,6042,9437,4540,1933,Tag0,unknown
1545011579895,0,24,5.2734375E-6,74,74,41,16745324,16756690,9778,19638,6042,9437,4540,1933,Tag0,unknown
1545011579895,0,66,1.4501953125E-5,74,74,41,16745324,16756690,9778,19638,6042,9437,4540,1933,Tag0,unknown
1545011579895,0,39,8.5693359375E-6,74,74,41,16745324,16756690,9778,19638,6042,9437,4540,1933,Tag0,unknown
1545011579896,0,-266,-5.8447265625E-5,74,74,41,16745324,16756690,9778,19638,6042,9437,4540,1933,Tag0,unknown
1545011579896,0,-266,-5.8447265625E-5,74,74,41,16745324,16756690,9778,19638,6042,9437,4540,1933,Tag0,unknown
1545011579896,0,45,9.8876953125E-6,74,74,41,16745324,16756690,9778,19638,6042,9437,4540,1933,Tag0,unknown
1545011579896,0,85,1.86767578125E-5,74,74,41,16745324,16756690,9778,19638,6042,9437,4540,1933,Tag0,unknown
1545011579896,0,53,1.1645507812500002E-5,74,74,41,16745324,16756690,9778,19638,6042,9437,4540,1933,Tag0,unknown
1545011579896,0,-265,-5.82275390625E-5,74,74,41,16745324,16756690,9778,19638,6042,9437,4540,1933,Tag0,unknown
1545011579897,0,-293,-6.43798828125E-5,74,74,41,16745324,16756690,9778,19638,6042,9437,4540,1933,Tag0,unknown
1545011579897,0,-258,-5.6689453125000004E-5,74,74,41,16745324,16756690,9778,19638,6042,9437,4540,1933,Tag0,unknown
1545011579897,0,33,7.2509765625E-6,74,74,41,16745324,16756690,9778,19638,6042,9437,4540,1933,Tag0,unknown
1545011579897,0,7,1.5380859375E-6,74,74,41,16745324,16756690,9778,19638,6042,9437,4540,1933,Tag0,unknown
1545011579897,0,-293,-6.43798828125E-5,74,74,41,16745324,16756690,9778,19638,6042,9437,4540,1933,Tag0,unknown
1545011579897,0,-312,-6.85546875E-5,74,74,41,16745324,16756690,9778,19638,6042,9437,4540,1933,Tag0,unknown
1545011579897,0,-291,-6.39404296875E-5,74,74,41,16745324,16756690,9778,19638,6042,9437,4540,1933,Tag0,unknown
1545011579898,0,-259,-5.69091796875E-5,74,74,41,16745324,16756690,9778,19638,6042,9437,4540,1933,Tag0,unknown
1545011579898,0,-268,-5.8886718750000006E-5,74,74,41,16745324,16756690,9778,19638,6042,9437,4540,1933,Tag0,unknown
1545011579898,0,-301,-6.613769531250001E-5,74,74,41,16745324,16756690,9778,19638,6042,9437,4540,1933,Tag0,unknown
1545011579898,0,-305,-6.70166015625E-5,74,74,41,16745324,16756690,9778,19638,6042,9437,4540,1933,Tag0,unknown
1545011579898,0,3,6.591796875E-7,74,74,41,16745324,16756690,9778,19638,6042,9437,4540,1933,Tag0,unknown
1545011579898,0,51,1.1206054687499999E-5,74,74,41,16745324,16756690,9778,19638,6042,9437,4540,1933,Tag0,unknown
1545011579899,0,37,8.1298828125E-6,74,74,41,16745324,16756690,9778,19638,6042,9437,4540,1933,Tag0,unknown
1545011579899,0,-265,-5.82275390625E-5,74,74,41,16745324,16756690,9778,19638,6042,9437,4540,1933,Tag0,unknown
1545011579899,0,-289,-6.35009765625E-5,74,74,41,16745324,16756690,9778,19638,6042,9437,4540,1933,Tag0,unknown
1545011579899,0,-267,-5.86669921875E-5,74,74,41,16745324,16756690,9778,19638,6042,9437,4540,1933,Tag0,unknown
1545011579899,0,22,4.833984375E-6,74,74,41,16745324,16756690,9778,19638,6042,9437,4540,1933,Tag0,unknown
1545011579899,0,24,5.2734375E-6,74,74,41,16745324,16756690,9778,19638,6042,9437,4540,1933,Tag0,unknown
1545011579899,0,-267,-5.86669921875E-5,74,74,41,16745324,16756690,9778,19638,6042,9437,4540,1933,Tag0,unknown
1545011579900,0,-297,-6.525878906250001E-5,74,74,41,16745324,16756690,9778,19638,6042,9437,4540,1933,Tag0,unknown
1545011579900,0,-275,-6.04248046875E-5,74,74,41,16745324,16756690,9778,19638,6042,9437,4540,1933,Tag0,unknown
1545011579900,0,35,7.6904296875E-6,74,74,41,16745324,16756690,9778,19638,6042,9437,4540,1933,Tag0,unknown
1545011579900,0,38,8.349609375E-6,74,74,41,16745324,16756690,9778,19638,6042,9437,4540,1933,Tag0,unknown
1545011579900,0,-266,-5.8447265625E-5,74,74,41,16745324,16756690,9778,19638,6042,9437,4540,1933,Tag0,unknown
1545011579900,0,-308,-6.767578125E-5,74,74,41,16745324,16756690,9778,19638,6042,9437,4540,1933,Tag0,unknown
1545011579901,0,-283,-6.218261718750001E-5,74,74,41,16745324,16756690,9778,19638,6042,9437,4540,1933,Tag0,unknown
1545011579901,0,37,8.1298828125E-6,74,74,41,16745324,16756690,9778,19638,6042,9437,4540,1933,Tag0,unknown
1545011579901,0,67,1.4721679687500002E-5,74,74,41,16745324,16756690,9778,19638,6042,9437,4540,1933,Tag0,unknown
1545011579901,0,19,4.1748046875E-6,74,74,41,16745324,16756690,9778,19638,6042,9437,4540,1933,Tag0,unknown
1545011579901,0,-325,-7.14111328125E-5,74,74,41,16745324,16756690,9778,19638,6042,9437,4540,1933,Tag0,unknown
1545011579901,0,-363,-7.97607421875E-5,74,74,41,16745324,16756690,9778,19638,6042,9437,4540,1933,Tag0,unknown
1545011579901,0,-305,-6.70166015625E-5,74,74,41,16745324,16756690,9778,19638,6042,9437,4540,1933,Tag0,unknown
1545011579902,0,43,9.448242187500001E-6,74,74,41,16745324,16756690,9778,19638,6042,9437,4540,1933,Tag0,unknown
1545011579902,0,84,1.8457031250000004E-5,74,74,41,16745324,16756690,9778,19638,6042,9437,4540,1933,Tag0,unknown
1545011579902,0,87,1.91162109375E-5,74,74,41,16745324,16756690,9778,19638,6042,9437,4540,1933,Tag0,unknown
1545011579902,0,101,2.2192382812500002E-5,74,74,41,16745324,16756690,9778,19638,6042,9437,4540,1933,Tag0,unknown
1545011579902,0,-109,-2.39501953125E-5,74,74,41,16745324,16756690,9778,19638,6042,9437,4540,1933,Tag0,unknown
1545011579903,0,-73,-1.6040039062500002E-5,74,74,41,16745324,16756690,9778,19638,6042,9437,4540,1933,Tag0,unknown
1545011579903,0,-76,-1.669921875E-5,74,74,41,16745324,16756690,9778,19638,6042,9437,4540,1933,Tag0,unknown
1545011579903,0,-87,-1.91162109375E-5,74,74,41,16745324,16756690,9778,19638,6042,9437,4540,1933,Tag0,unknown
1545011579903,0,-43,-9.448242187500001E-6,74,74,41,16745324,16756690,9778,19638,6042,9437,4540,1933,Tag0,unknown
1545011579903,0,293,6.43798828125E-5,74,74,41,16745324,16756690,9778,19638,6042,9437,4540,1933,Tag0,unknown
1545011579903,0,338,7.426757812499999E-5,74,74,41,16745324,16756690,9778,19638,6042,9437,4540,1933,Tag0,unknown
1545011579904,0,310,6.8115234375E-5,74,74,41,16745324,16756690,9778,19638,6042,9437,4540,1933,Tag0,unknown
1545011579904,0,260,5.712890625E-5,74,74,41,16745324,16756690,9778,19638,6042,9437,4540,1933,Tag0,unknown
1545011579904,0,-13,-2.8564453125E-6,74,74,41,16745324,16756690,9778,19638,6042,9437,4540,1933,Tag0,unknown
1545011579904,0,289,6.35009765625E-5,74,74,41,16745324,16756690,9778,19638,6042,9437,4540,1933,Tag0,unknown
1545011579905,0,372,8.173828125E-5,74,74,41,16745324,16756690,9778,19638,6042,9437,4540,1933,Tag0,unknown
1545011579905,0,163,3.5815429687500006E-5,74,74,41,16745324,16756690,9778,19638,6042,9437,4540,1933,Tag0,unknown
1545011579905,0,176,3.8671875E-5,74,74,41,16745324,16756690,9778,19638,6042,9437,4540,1933,Tag0,unknown
1545011579905,0,185,4.06494140625E-5,74,74,41,16745324,16756690,9778,19638,6042,9437,4540,1933,Tag0,unknown
1545011579905,0,214,4.7021484375E-5,74,74,41,16745324,16756690,9778,19638,6042,9437,4540,1933,Tag0,unknown
1545011579905,0,513,1.127197265625E-4,74,74,41,16745324,16756690,9778,19638,6042,9437,4540,1933,Tag0,unknown
1545011579906,0,529,1.162353515625E-4,74,74,41,16745324,16756690,9778,19638,6042,9437,4540,1933,Tag0,unknown
1545011579906,0,521,1.1447753906250001E-4,74,74,41,16745324,16756690,9778,19638,6042,9437,4540,1933,Tag0,unknown
1545011579906,0,529,1.162353515625E-4,74,74,41,16745324,16756690,9778,19638,6042,9437,4540,1933,Tag0,unknown
1545011579906,0,571,1.254638671875E-4,74,74,41,16745324,16756690,9778,19638,6042,9437,4540,1933,Tag0,unknown
1545011579908,0,621,1.364501953125E-4,74,74,41,16745324,16756690,9778,19638,6042,9437,4540,1933,Tag0,unknown
1545011579908,0,630,1.38427734375E-4,74,74,41,16745324,16756690,9778,19638,6042,9437,4540,1933,Tag0,unknown
1545011579908,0,614,1.34912109375E-4,74,74,41,16745324,16756690,9778,19638,6042,9437,4540,1933,Tag0,unknown
1545011579909,0,617,1.355712890625E-4,74,74,41,16745324,16756690,9778,19638,6042,9437,4540,1933,Tag0,unknown
1545011579909,0,403,8.854980468749999E-5,74,74,41,16745324,16756690,9778,19638,6042,9437,4540,1933,Tag0,unknown
1545011579909,0,448,9.84375E-5,74,74,41,16745324,16756690,9778,19638,6042,9437,4540,1933,Tag0,unknown
1545011579909,0,425,9.33837890625E-5,74,74,41,16745324,16756690,9778,19638,6042,9437,4540,1933,Tag0,unknown
1545011579909,0,597,1.3117675781250003E-4,74,74,41,16745324,16756690,9778,19638,6042,9437,4540,1933,Tag0,unknown
1545011579926,0,518,1.13818359375E-4,74,74,41,16745324,16756690,9778,19638,6042,9437,4540,1933,Tag0,unknown
1545011579926,0,528,1.16015625E-4,74,74,41,16745324,16756690,9778,19638,6042,9437,4540,1933,Tag0,unknown
1545011579927,0,603,1.3249511718750002E-4,74,74,41,16745324,16756690,9778,19638,6042,9437,4540,1933,Tag0,unknown
1545011579927,0,636,1.3974609375E-4,74,74,41,16745324,16756690,9778,19638,6042,9437,4540,1933,Tag0,unknown
1545011579927,0,588,1.2919921875E-4,74,74,41,16745324,16756690,9778,19638,6042,9437,4540,1933,Tag0,unknown
1545011579927,0,519,1.140380859375E-4,74,74,41,16745324,16756690,9778,19638,6042,9437,4540,1933,Tag0,unknown
1545011579927,0,234,5.1416015624999996E-5,74,74,41,16745324,16756690,9778,19638,6042,9437,4540,1933,Tag0,unknown
1545011579927,0,252,5.537109375E-5,74,74,41,16745324,16756690,9778,19638,6042,9437,4540,1933,Tag0,unknown
1545011579928,0,231,5.07568359375E-5,74,74,41,16745324,16756690,9778,19638,6042,9437,4540,1933,Tag0,unknown
1545011579941,0,147,3.22998046875E-5,74,74,41,16745324,16756690,9778,19638,6042,9437,4540,1933,Tag0,unknown
1545011579958,0,309,6.78955078125E-5,74,74,41,16745324,16756690,9778,19638,6042,9437,4540,1933,Tag0,unknown
1545011579960,0,282,6.1962890625E-5,74,74,41,16745324,16756690,9778,19638,6042,9437,4540,1933,Tag0,unknown
1545011579960,0,331,7.272949218750001E-5,74,74,41,16745324,16756690,9778,19638,6042,9437,4540,1933,Tag0,unknown
1545011579961,0,374,8.2177734375E-5,74,74,41,16745324,16756690,9778,19638,6042,9437,4540,1933,Tag0,unknown
1545011579961,0,343,7.53662109375E-5,74,74,41,16745324,16756690,9778,19638,6042,9437,4540,1933,Tag0,unknown
1545011579961,0,280,6.15234375E-5,74,74,41,16745324,16756690,9778,19638,6042,9437,4540,1933,Tag0,unknown
1545011579961,0,259,5.69091796875E-5,74,74,41,16745324,16756690,9778,19638,6042,9437,4540,1933,Tag0,unknown
1545011579962,0,299,6.56982421875E-5,74,74,41,16745324,16756690,9778,19638,6042,9437,4540,1933,Tag0,unknown
1545011579962,0,337,7.40478515625E-5,74,74,41,16745324,16756690,9778,19638,6042,9437,4540,1933,Tag0,unknown
1545011579962,0,296,6.50390625E-5,74,74,41,16745324,16756690,9778,19638,6042,9437,4540,1933,Tag0,unknown
1545011579962,0,-37,-8.1298828125E-6,74,74,41,16745324,16756690,9778,19638,6042,9437,4540,1933,Tag0,unknown
1545011579963,0,-57,-1.2524414062500001E-5,74,74,62,16745324,16756690,9778,19638,6042,9437,4540,1933,Tag0,unknown
1545011579963,0,-14,-3.076171875E-6,74,74,62,16745324,16756690,9778,19638,6042,9437,4540,1933,Tag0,unknown
1545011579963,0,259,5.69091796875E-5,74,74,62,16745324,16756690,9778,19638,6042,9437,4540,1933,Tag0,unknown
1545011579963,0,-63,-1.38427734375E-5,74,74,62,16745324,16756690,9778,19638,6042,9437,4540,1933,Tag0,unknown
1545011579963,0,89,1.95556640625E-5,74,74,62,16745324,16756690,9778,19638,6042,9437,4540,1933,Tag0,unknown
1545011579975,0,41,9.008789062499999E-6,74,74,62,16745324,16756690,9778,19638,6042,9437,4540,1933,Tag0,unknown
1545011579975,0,75,1.64794921875E-5,74,74,62,16745324,16756690,9778,19638,6042,9437,4540,1933,Tag0,unknown
1545011579975,0,-123,-2.70263671875E-5,74,74,62,16745324,16756690,9778,19638,6042,9437,4540,1933,Tag0,unknown
1545011579976,0,-127,-2.79052734375E-5,74,74,62,16745324,16756690,9778,19638,6042,9437,4540,1933,Tag0,unknown
1545011579976,0,66,1.4501953125E-5,74,74,62,16745324,16756690,9778,19638,6042,9437,4540,1933,Tag0,unknown
1545011579976,0,17,3.7353515625000003E-6,74,74,62,16745324,16756690,9778,19638,6042,9437,4540,1933,Tag0,unknown
1545011579976,0,29,6.3720703125E-6,74,74,62,16745324,16756690,9778,19638,6042,9437,4540,1933,Tag0,unknown
1545011579976,0,57,1.2524414062500001E-5,74,74,62,16745324,16756690,9778,19638,6042,9437,4540,1933,Tag0,unknown
1545011579976,0,41,9.008789062499999E-6,74,74,62,16745324,16756690,9778,19638,6042,9437,4540,1933,Tag0,unknown
1545011579991,0,0,0.0,74,74,62,16745324,16756690,9778,19638,6042,9437,4540,1933,Tag0,unknown
1545011579992,0,-281,-6.17431640625E-5,74,74,62,16745324,16756690,9778,19638,6042,9437,4540,1933,Tag0,unknown
1545011579992,0,-265,-5.82275390625E-5,74,74,62,16745324,16756690,9778,19638,6042,9437,4540,1933,Tag0,unknown
1545011579992,0,13,2.8564453125E-6,74,74,62,16745324,16756690,9778,19638,6042,9437,4540,1933,Tag0,unknown
1545011579992,0,-258,-5.6689453125000004E-5,74,74,62,16745324,16756690,9778,19638,6042,9437,4540,1933,Tag0,unknown
1545011579992,0,-309,-6.78955078125E-5,74,74,62,16745324,16756690,9778,19638,6042,9437,4540,1933,Tag0,unknown
1545011579992,0,-338,-7.426757812499999E-5,74,74,62,16745324,16756690,9778,19638,6042,9437,4540,1933,Tag0,unknown
1545011579993,0,-312,-6.85546875E-5,74,74,62,16745324,16756690,9778,19638,6042,9437,4540,1933,Tag0,unknown
1545011580009,0,-267,-5.86669921875E-5,74,74,62,16745324,16756690,9778,19638,6042,9437,4540,1933,Tag0,unknown
1545011580012,0,-284,-6.240234375E-5,70,75,62,492148,46935,16756653,31219,16752846,11820,3002,4415,Tag0,unknown
1545011580012,0,-345,-7.58056640625E-5,70,75,62,492148,46935,16756653,31219,16752846,11820,3002,4415,Tag0,unknown
1545011580013,0,-372,-8.173828125E-5,70,75,62,492148,46935,16756653,31219,16752846,11820,3002,4415,Tag0,unknown
1545011580013,0,-344,-7.558593750000001E-5,70,75,62,492148,46935,16756653,31219,16752846,11820,3002,4415,Tag0,unknown
1545011580013,0,-283,-6.218261718750001E-5,70,75,62,492148,46935,16756653,31219,16752846,11820,3002,4415,Tag0,unknown
1545011580013,0,1,2.197265625E-7,70,75,62,492148,46935,16756653,31219,16752846,11820,3002,4415,Tag0,unknown
1545011580028,0,-283,-6.218261718750001E-5,70,75,62,492148,46935,16756653,31219,16752846,11820,3002,4415,Tag0,unknown
1545011580029,0,-317,-6.96533203125E-5,70,75,62,492148,46935,16756653,31219,16752846,11820,3002,4415,Tag0,unknown
1545011580029,0,-323,-7.09716796875E-5,70,75,62,492148,46935,16756653,31219,16752846,11820,3002,4415,Tag0,unknown
1545011580029,0,-305,-6.70166015625E-5,70,75,62,492148,46935,16756653,31219,16752846,11820,3002,4415,Tag0,unknown
1545011580029,0,-305,-6.70166015625E-5,70,75,62,492148,46935,16756653,31219,16752846,11820,3002,4415,Tag0,unknown
1545011580029,0,-346,-7.6025390625E-5,70,75,62,492148,46935,16756653,31219,16752846,11820,3002,4415,Tag0,unknown
1545011580030,0,-133,-2.92236328125E-5,70,75,62,492148,46935,16756653,31219,16752846,11820,3002,4415,Tag0,unknown
1545011580030,0,-362,-7.954101562500001E-5,70,75,62,492148,46935,16756653,31219,16752846,11820,3002,4415,Tag0,unknown
1545011580030,0,-302,-6.6357421875E-5,70,75,62,492148,46935,16756653,31219,16752846,11820,3002,4415,Tag0,unknown
1545011580030,0,-293,-6.43798828125E-5,70,75,62,492148,46935,16756653,31219,16752846,11820,3002,4415,Tag0,unknown
1545011580042,0,-333,-7.316894531249999E-5,70,75,62,492148,46935,16756653,31219,16752846,11820,3002,4415,Tag0,unknown
1545011580043,0,-371,-8.151855468750001E-5,70,75,62,492148,46935,16756653,31219,16752846,11820,3002,4415,Tag0,unknown
1545011580043,0,-130,-2.8564453125E-5,70,75,62,492148,46935,16756653,31219,16752846,11820,3002,4415,Tag0,unknown
1545011580043,0,-374,-8.2177734375E-5,70,75,62,492148,46935,16756653,31219,16752846,11820,3002,4415,Tag0,unknown
1545011580043,0,-343,-7.53662109375E-5,70,75,62,492148,46935,16756653,31219,16752846,11820,3002,4415,Tag0,unknown
1545011580043,0,-322,-7.0751953125E-5,70,75,62,492148,46935,16756653,31219,16752846,11820,3002,4415,Tag0,unknown
1545011580043,0,-315,-6.92138671875E-5,70,75,62,492148,46935,16756653,31219,16752846,11820,3002,4415,Tag0,unknown
1545011580044,0,-321,-7.053222656250001E-5,70,75,62,492148,46935,16756653,31219,16752846,11820,3002,4415,Tag0,unknown
1545011580044,0,-313,-6.87744140625E-5,70,75,62,492148,46935,16756653,31219,16752846,11820,3002,4415,Tag0,unknown
1545011580058,0,-314,-6.8994140625E-5,70,75,62,492148,46935,16756653,31219,16752846,11820,3002,4415,Tag0,unknown
1545011580058,0,-343,-7.53662109375E-5,70,75,62,492148,46935,16756653,31219,16752846,11820,3002,4415,Tag0,unknown
1545011580058,0,-370,-8.1298828125E-5,70,75,62,492148,46935,16756653,31219,16752846,11820,3002,4415,Tag0,unknown
1545011580059,0,-379,-8.32763671875E-5,70,75,62,492148,46935,16756653,31219,16752846,11820,3002,4415,Tag0,unknown
1545011580061,0,-376,-8.261718750000001E-5,70,75,62,492148,46935,16756653,31219,16752846,11820,3002,4415,Tag0,unknown
1545011580061,0,-365,-8.02001953125E-5,70,75,62,492148,46935,16756653,31219,16752846,11820,3002,4415,Tag0,unknown
1545011580061,0,-373,-8.19580078125E-5,70,75,62,492148,46935,16756653,31219,16752846,11820,3002,4415,Tag0,unknown
1545011580061,0,-141,-3.09814453125E-5,70,75,62,492148,46935,16756653,31219,16752846,11820,3002,4415,Tag0,unknown
1545011580074,0,-156,-3.427734375E-5,70,75,62,492148,46935,16756653,31219,16752846,11820,3002,4415,Tag0,unknown
1545011580075,0,-136,-2.9882812500000002E-5,70,75,62,492148,46935,16756653,31219,16752846,11820,3002,4415,Tag0,unknown
1545011580075,0,-365,-8.02001953125E-5,70,75,62,492148,46935,16756653,31219,16752846,11820,3002,4415,Tag0,unknown
1545011580075,0,-371,-8.151855468750001E-5,70,75,62,492148,46935,16756653,31219,16752846,11820,3002,4415,Tag0,unknown
1545011580075,0,-149,-3.27392578125E-5,70,75,62,492148,46935,16756653,31219,16752846,11820,3002,4415,Tag0,unknown
1545011580075,0,-168,-3.691406250000001E-5,70,75,62,492148,46935,16756653,31219,16752846,11820,3002,4415,Tag0,unknown
1545011580076,0,-151,-3.31787109375E-5,70,75,62,492148,46935,16756653,31219,16752846,11820,3002,4415,Tag0,unknown
1545011580076,0,-377,-8.28369140625E-5,70,75,62,492148,46935,16756653,31219,16752846,11820,3002,4415,Tag0,unknown
1545011580076,0,-153,-3.3618164062500004E-5,70,75,62,492148,46935,16756653,31219,16752846,11820,3002,4415,Tag0,unknown
1545011580090,0,-219,-4.81201171875E-5,70,75,62,492148,46935,16756653,31219,16752846,11820,3002,4415,Tag0,unknown
1545011580091,0,-252,-5.537109375E-5,70,75,62,492148,46935,16756653,31219,16752846,11820,3002,4415,Tag0,unknown
1545011580091,0,-225,-4.94384765625E-5,70,75,62,492148,46935,16756653,31219,16752846,11820,3002,4415,Tag0,unknown
1545011580091,0,-168,-3.691406250000001E-5,70,75,62,492148,46935,16756653,31219,16752846,11820,3002,4415,Tag0,unknown
1545011580091,0,-150,-3.2958984375E-5,70,75,62,492148,46935,16756653,31219,16752846,11820,3002,4415,Tag0,unknown
1545011580091,0,-179,-3.93310546875E-5,70,75,62,492148,46935,16756653,31219,16752846,11820,3002,4415,Tag0,unknown
1545011580091,0,-225,-4.94384765625E-5,70,75,62,492148,46935,16756653,31219,16752846,11820,3002,4415,Tag0,unknown
1545011580091,0,-229,-5.03173828125E-5,70,75,62,492148,46935,16756653,31219,16752846,11820,3002,4415,Tag0,unknown
1545011580091,0,-195,-4.28466796875E-5,70,75,62,492148,46935,16756653,31219,16752846,11820,3002,4415,Tag0,unknown
1545011580108,0,-188,-4.1308593750000004E-5,70,75,62,492148,46935,16756653,31219,16752846,11820,3002,4415,Tag0,unknown
1545011580109,0,-235,-5.16357421875E-5,70,75,62,492148,46935,16756653,31219,16752846,11820,3002,4415,Tag0,unknown
1545011580109,0,-539,-1.1843261718750001E-4,70,75,62,492148,46935,16756653,31219,16752846,11820,3002,4415,Tag0,unknown
1545011580109,0,-535,-1.175537109375E-4,70,75,62,492148,46935,16756653,31219,16752846,11820,3002,4415,Tag0,unknown
1545011580109,0,-226,-4.9658203125E-5,70,75,62,492148,46935,16756653,31219,16752846,11820,3002,4415,Tag0,unknown
1545011580109,0,-198,-4.3505859375000006E-5,70,75,62,492148,46935,16756653,31219,16752846,11820,3002,4415,Tag0,unknown
1545011580109,0,-229,-5.03173828125E-5,70,75,62,492148,46935,16756653,31219,16752846,11820,3002,4415,Tag0,unknown
1545011580109,0,-533,-1.171142578125E-4,70,75,62,492148,46935,16756653,31219,16752846,11820,3002,4415,Tag0,unknown
1545011580109,0,-536,-1.1777343750000001E-4,70,75,62,492148,46935,16756653,31219,16752846,11820,3002,4415,Tag0,unknown
1545011580124,0,-233,-5.1196289062500006E-5,70,75,62,492148,46935,16756653,31219,16752846,11820,3002,4415,Tag0,unknown
1545011580125,0,-198,-4.3505859375000006E-5,70,75,62,492148,46935,16756653,31219,16752846,11820,3002,4415,Tag0,unknown
1545011580125,0,-204,-4.4824218749999996E-5,70,75,62,492148,46935,16756653,31219,16752846,11820,3002,4415,Tag0,unknown
1545011580125,0,-218,-4.7900390625E-5,70,75,62,492148,46935,16756653,31219,16752846,11820,3002,4415,Tag0,unknown
1545011580126,0,-209,-4.59228515625E-5,70,75,62,492148,46935,16756653,31219,16752846,11820,3002,4415,Tag0,unknown
1545011580126,0,-169,-3.7133789062499996E-5,70,75,62,492148,46935,16756653,31219,16752846,11820,3002,4415,Tag0,unknown
1545011580126,0,-137,-3.0102539062499998E-5,70,75,62,492148,46935,16756653,31219,16752846,11820,3002,4415,Tag0,unknown
1545011580126,0,-152,-3.33984375E-5,70,75,62,492148,46935,16756653,31219,16752846,11820,3002,4415,Tag0,unknown
1545011580141,0,-187,-4.10888671875E-5,70,75,62,492148,46935,16756653,31219,16752846,11820,3002,4415,Tag0,unknown
1545011580141,0,-189,-4.15283203125E-5,70,75,62,492148,46935,16756653,31219,16752846,11820,3002,4415,Tag0,unknown
1545011580141,0,-151,-3.31787109375E-5,70,75,62,492148,46935,16756653,31219,16752846,11820,3002,4415,Tag0,unknown
1545011580141,0,-377,-8.28369140625E-5,70,75,62,492148,46935,16756653,31219,16752846,11820,3002,4415,Tag0,unknown
1545011580141,0,-152,-3.33984375E-5,70,75,62,492148,46935,16756653,31219,16752846,11820,3002,4415,Tag0,unknown
1545011580142,0,-204,-4.4824218749999996E-5,70,75,62,492148,46935,16756653,31219,16752846,11820,3002,4415,Tag0,unknown
1545011580142,0,-212,-4.6582031250000006E-5,70,75,62,492148,46935,16756653,31219,16752846,11820,3002,4415,Tag0,unknown
1545011580142,0,-157,-3.44970703125E-5,70,75,62,492148,46935,16756653,31219,16752846,11820,3002,4415,Tag0,unknown
1545011580165,0,-355,-7.80029296875E-5,70,75,62,492148,46935,16756653,31219,16752846,11820,3002,4415,Tag0,unknown
1545011580167,0,-359,-7.88818359375E-5,70,75,62,492148,46935,16756653,31219,16752846,11820,3002,4415,Tag0,unknown
1545011580167,0,-156,-3.427734375E-5,70,75,62,492148,46935,16756653,31219,16752846,11820,3002,4415,Tag0,unknown
1545011580167,0,-190,-4.1748046875E-5,70,75,62,492148,46935,16756653,31219,16752846,11820,3002,4415,Tag0,unknown
1545011580168,0,-155,-3.40576171875E-5,70,75,62,492148,46935,16756653,31219,16752846,11820,3002,4415,Tag0,unknown
1545011580168,0,-348,-7.646484375E-5,70,75,62,492148,46935,16756653,31219,16752846,11820,3002,4415,Tag0,unknown
1545011580168,0,-326,-7.163085937500001E-5,70,75,62,492148,46935,16756653,31219,16752846,11820,3002,4415,Tag0,unknown
1545011580168,0,-364,-7.998046875E-5,70,75,62,492148,46935,16756653,31219,16752846,11820,3002,4415,Tag0,unknown
1545011580168,0,-149,-3.27392578125E-5,70,75,62,492148,46935,16756653,31219,16752846,11820,3002,4415,Tag0,unknown
1545011580169,0,-129,-2.8344726562500002E-5,70,75,62,492148,46935,16756653,31219,16752846,11820,3002,4415,Tag0,unknown
1545011580176,0,-327,-7.18505859375E-5,70,75,62,492148,46935,16756653,31219,16752846,11820,3002,4415,Tag0,unknown
1545011580176,0,-311,-6.833496093750001E-5,70,75,62,492148,46935,16756653,31219,16752846,11820,3002,4415,Tag0,unknown
1545011580176,0,-348,-7.646484375E-5,70,75,62,492148,46935,16756653,31219,16752846,11820,3002,4415,Tag0,unknown
1545011580179,0,-131,-2.87841796875E-5,70,75,62,492148,46935,16756653,31219,16752846,11820,3002,4415,Tag0,unknown
1545011580180,0,-131,-2.87841796875E-5,70,75,62,492148,46935,16756653,31219,16752846,11820,3002,4415,Tag0,unknown
1545011580180,0,-353,-7.75634765625E-5,70,75,62,492148,46935,16756653,31219,16752846,11820,3002,4415,Tag0,unknown
1545011580180,0,-318,-6.9873046875E-5,70,75,62,492148,46935,16756653,31219,16752846,11820,3002,4415,Tag0,unknown
1545011580191,0,-329,-7.229003906250001E-5,70,75,62,492148,46935,16756653,31219,16752846,11820,3002,4415,Tag0,unknown
1545011580192,0,-359,-7.88818359375E-5,70,75,62,492148,46935,16756653,31219,16752846,11820,3002,4415,Tag0,unknown
1545011580192,0,-348,-7.646484375E-5,70,75,62,492148,46935,16756653,31219,16752846,11820,3002,4415,Tag0,unknown
1545011580192,0,-285,-6.26220703125E-5,70,75,62,492148,46935,16756653,31219,16752846,11820,3002,4415,Tag0,unknown
1545011580192,0,2,4.39453125E-7,70,75,62,492148,46935,16756653,31219,16752846,11820,3002,4415,Tag0,unknown
1545011580192,0,-285,-6.26220703125E-5,70,75,62,492148,46935,16756653,31219,16752846,11820,3002,4415,Tag0,unknown
1545011580193,0,-329,-7.229003906250001E-5,70,75,62,492148,46935,16756653,31219,16752846,11820,3002,4415,Tag0,unknown
1545011580193,0,-329,-7.229003906250001E-5,70,75,62,492148,46935,16756653,31219,16752846,11820,3002,4415,Tag0,unknown
1545011580193,0,-275,-6.04248046875E-5,70,75,62,492148,46935,16756653,31219,16752846,11820,3002,4415,Tag0,unknown
1545011580209,0,23,5.0537109375E-6,70,75,62,492148,46935,16756653,31219,16752846,11820,3002,4415,Tag0,unknown
1545011580209,0,-260,-5.712890625E-5,70,75,62,492148,46935,16756653,31219,16752846,11820,3002,4415,Tag0,unknown
1545011580210,0,-310,-6.8115234375E-5,70,75,62,492148,46935,16756653,31219,16752846,11820,3002,4415,Tag0,unknown
1545011580210,0,-323,-7.09716796875E-5,70,75,62,492148,46935,16756653,31219,16752846,11820,3002,4415,Tag0,unknown
1545011580210,0,-286,-6.2841796875E-5,70,75,62,492148,46935,16756653,31219,16752846,11820,3002,4415,Tag0,unknown
1545011580213,0,8,1.7578125E-6,70,75,62,492148,46935,16756653,31219,16752846,11820,3002,4415,Tag0,unknown
1545011580213,0,8,1.7578125E-6,70,75,62,492148,46935,16756653,31219,16752846,11820,3002,4415,Tag0,unknown
1545011580213,0,-263,-5.7788085937500005E-5,70,75,62,492148,46935,16756653,31219,16752846,11820,3002,4415,Tag0,unknown
1545011580214,0,5,1.0986328125E-6,70,75,62,492148,46935,16756653,31219,16752846,11820,3002,4415,Tag0,unknown
1545011580224,0,51,1.1206054687499999E-5,70,75,62,492148,46935,16756653,31219,16752846,11820,3002,4415,Tag0,unknown
1545011580225,0,81,1.77978515625E-5,70,75,62,492148,46935,16756653,31219,16752846,11820,3002,4415,Tag0,unknown
1545011580225,0,56,1.23046875E-5,70,75,62,492148,46935,16756653,31219,16752846,11820,3002,4415,Tag0,unknown
1545011580225,0,20,4.39453125E-6,70,75,62,492148,46935,16756653,31219,16752846,11820,3002,4415,Tag0,unknown
1545011580225,0,12,2.63671875E-6,70,75,62,492148,46935,16756653,31219,16752846,11820,3002,4415,Tag0,unknown
1545011580225,0,54,1.1865234375000001E-5,70,75,62,492148,46935,16756653,31219,16752846,11820,3002,4415,Tag0,unknown
1545011580226,0,92,2.021484375E-5,70,75,62,492148,46935,16756653,31219,16752846,11820,3002,4415,Tag0,unknown
1545011580226,0,77,1.69189453125E-5,70,75,62,492148,46935,16756653,31219,16752846,11820,3002,4415,Tag0,unknown
1545011580241,0,24,5.2734375E-6,70,75,62,492148,46935,16756653,31219,16752846,11820,3002,4415,Tag0,unknown
1545011580241,0,-265,-5.82275390625E-5,70,75,62,492148,46935,16756653,31219,16752846,11820,3002,4415,Tag0,unknown
1545011580241,0,16,3.515625E-6,70,75,62,492148,46935,16756653,31219,16752846,11820,3002,4415,Tag0,unknown
1545011580241,0,64,1.40625E-5,70,75,62,492148,46935,16756653,31219,16752846,11820,3002,4415,Tag0,unknown
1545011580242,0,65,1.42822265625E-5,70,75,62,492148,46935,16756653,31219,16752846,11820,3002,4415,Tag0,unknown
1545011580245,0,35,7.6904296875E-6,70,75,62,492148,46935,16756653,31219,16752846,11820,3002,4415,Tag0,unknown
1545011580245,0,28,6.15234375E-6,70,75,62,492148,46935,16756653,31219,16752846,11820,3002,4415,Tag0,unknown
1545011580245,0,74,1.6259765625E-5,70,75,62,492148,46935,16756653,31219,16752846,11820,3002,4415,Tag0,unknown
1545011580258,0,-117,-2.5708007812499998E-5,70,75,62,492148,46935,16756653,31219,16752846,11820,3002,4415,Tag0,unknown
1545011580258,0,-112,-2.4609375E-5,70,75,62,492148,46935,16756653,31219,16752846,11820,3002,4415,Tag0,unknown
1545011580258,0,81,1.77978515625E-5,70,75,62,492148,46935,16756653,31219,16752846,11820,3002,4415,Tag0,unknown
1545011580259,0,25,5.4931640625E-6,70,75,62,492148,46935,16756653,31219,16752846,11820,3002,4415,Tag0,unknown
1545011580259,0,35,7.6904296875E-6,70,75,62,492148,46935,16756653,31219,16752846,11820,3002,4415,Tag0,unknown
1545011580259,0,97,2.13134765625E-5,70,75,62,492148,46935,16756653,31219,16752846,11820,3002,4415,Tag0,unknown
1545011580259,0,-127,-2.79052734375E-5,70,75,62,492148,46935,16756653,31219,16752846,11820,3002,4415,Tag0,unknown
1545011580259,0,100,2.197265625E-5,70,75,62,492148,46935,16756653,31219,16752846,11820,3002,4415,Tag0,unknown
1545011580260,0,65,1.42822265625E-5,70,75,62,492148,46935,16756653,31219,16752846,11820,3002,4415,Tag0,unknown
1545011580277,0,59,1.29638671875E-5,70,75,62,492148,46935,16756653,31219,16752846,11820,3002,4415,Tag0,unknown
1545011580277,0,89,1.95556640625E-5,70,75,62,492148,46935,16756653,31219,16752846,11820,3002,4415,Tag0,unknown
1545011580277,0,102,2.2412109374999998E-5,70,75,62,492148,46935,16756653,31219,16752846,11820,3002,4415,Tag0,unknown
1545011580280,0,66,1.4501953125E-5,70,75,62,492148,46935,16756653,31219,16752846,11820,3002,4415,Tag0,unknown
1545011580281,0,17,3.7353515625000003E-6,70,75,62,492148,46935,16756653,31219,16752846,11820,3002,4415,Tag0,unknown
1545011580281,0,22,4.833984375E-6,70,75,62,492148,46935,16756653,31219,16752846,11820,3002,4415,Tag0,unknown
1545011580281,0,87,1.91162109375E-5,70,75,62,492148,46935,16756653,31219,16752846,11820,3002,4415,Tag0,unknown
1545011580281,0,120,2.63671875E-5,70,75,62,492148,46935,16756653,31219,16752846,11820,3002,4415,Tag0,unknown
1545011580282,0,89,1.95556640625E-5,70,75,62,492148,46935,16756653,31219,16752846,11820,3002,4415,Tag0,unknown
1545011580291,0,36,7.91015625E-6,70,75,62,492148,46935,16756653,31219,16752846,11820,3002,4415,Tag0,unknown
1545011580291,0,24,5.2734375E-6,70,75,62,492148,46935,16756653,31219,16752846,11820,3002,4415,Tag0,unknown
1545011580292,0,76,1.669921875E-5,70,75,62,492148,46935,16756653,31219,16752846,11820,3002,4415,Tag0,unknown
1545011580292,0,118,2.5927734375E-5,70,75,62,492148,46935,16756653,31219,16752846,11820,3002,4415,Tag0,unknown
1545011580292,0,102,2.2412109374999998E-5,70,75,62,492148,46935,16756653,31219,16752846,11820,3002,4415,Tag0,unknown
1545011580292,0,65,1.42822265625E-5,70,75,62,492148,46935,16756653,31219,16752846,11820,3002,4415,Tag0,unknown
1545011580293,0,51,1.1206054687499999E-5,70,75,62,492148,46935,16756653,31219,16752846,11820,3002,4415,Tag0,unknown
1545011580293,0,81,1.77978515625E-5,70,75,62,492148,46935,16756653,31219,16752846,11820,3002,4415,Tag0,unknown
1545011580308,0,121,2.6586914062500003E-5,70,75,62,492148,46935,16756653,31219,16752846,11820,3002,4415,Tag0,unknown
1545011580308,0,116,2.548828125E-5,70,75,62,492148,46935,16756653,31219,16752846,11820,3002,4415,Tag0,unknown
1545011580308,0,67,1.4721679687500002E-5,70,75,62,492148,46935,16756653,31219,16752846,11820,3002,4415,Tag0,unknown
1545011580309,0,37,8.1298828125E-6,70,75,62,492148,46935,16756653,31219,16752846,11820,3002,4415,Tag0,unknown
1545011580311,0,80,1.7578125E-5,70,75,62,492148,46935,16756653,31219,16752846,11820,3002,4415,Tag0,unknown
1545011580312,0,-109,-2.39501953125E-5,70,75,62,492148,46935,16756653,31219,16752846,11820,3002,4415,Tag0,unknown
1545011580312,0,-109,-2.39501953125E-5,70,75,62,492148,46935,16756653,31219,16752846,11820,3002,4415,Tag0,unknown
1545011580312,0,85,1.86767578125E-5,70,75,62,492148,46935,16756653,31219,16752846,11820,3002,4415,Tag0,unknown
1545011580312,0,52,1.142578125E-5,70,75,62,492148,46935,16756653,31219,16752846,11820,3002,4415,Tag0,unknown
1545011580324,0,90,1.9775390625E-5,70,75,62,492148,46935,16756653,31219,16752846,11820,3002,4415,Tag0,unknown
1545011580325,0,-108,-2.3730468750000002E-5,70,75,62,492148,46935,16756653,31219,16752846,11820,3002,4415,Tag0,unknown
1545011580325,0,-109,-2.39501953125E-5,70,75,62,492148,46935,16756653,31219,16752846,11820,3002,4415,Tag0,unknown
1545011580325,0,104,2.28515625E-5,70,75,62,492148,46935,16756653,31219,16752846,11820,3002,4415,Tag0,unknown
1545011580325,0,82,1.8017578124999998E-5,70,75,62,492148,46935,16756653,31219,16752846,11820,3002,4415,Tag0,unknown
1545011580325,0,113,2.48291015625E-5,70,75,62,492148,46935,16756653,31219,16752846,11820,3002,4415,Tag0,unknown
1545011580326,0,-93,-2.04345703125E-5,70,75,62,492148,46935,16756653,31219,16752846,11820,3002,4415,Tag0,unknown
1545011580326,0,-95,-2.08740234375E-5,70,75,62,492148,46935,16756653,31219,16752846,11820,3002,4415,Tag0,unknown
1545011580342,0,113,2.48291015625E-5,70,75,62,492148,46935,16756653,31219,16752846,11820,3002,4415,Tag0,unknown
1545011580343,0,76,1.669921875E-5,70,75,62,492148,46935,16756653,31219,16752846,11820,3002,4415,Tag0,unknown
1545011580346,0,99,2.1752929687500003E-5,70,75,62,492148,46935,16756653,31219,16752846,11820,3002,4415,Tag0,unknown
1545011580346,0,-101,-2.2192382812500002E-5,70,75,62,492148,46935,16756653,31219,16752846,11820,3002,4415,Tag0,unknown
1545011580346,0,-84,-1.8457031250000004E-5,70,75,62,492148,46935,16756653,31219,16752846,11820,3002,4415,Tag0,unknown
1545011580346,0,-128,-2.8125E-5,70,75,62,492148,46935,16756653,31219,16752846,11820,3002,4415,Tag0,unknown
1545011580347,0,81,1.77978515625E-5,70,75,62,492148,46935,16756653,31219,16752846,11820,3002,4415,Tag0,unknown
1545011580347,0,97,2.13134765625E-5,70,75,62,492148,46935,16756653,31219,16752846,11820,3002,4415,Tag0,unknown
1545011580347,0,-101,-2.2192382812500002E-5,70,75,62,492148,46935,16756653,31219,16752846,11820,3002,4415,Tag0,unknown
1545011580361,0,-85,-1.86767578125E-5,70,75,62,492148,46935,16756653,31219,16752846,11820,3002,4415,Tag0,unknown
1545011580362,0,120,2.63671875E-5,70,75,62,492148,46935,16756653,31219,16752846,11820,3002,4415,Tag0,unknown
1545011580362,0,61,1.34033203125E-5,70,75,62,492148,46935,16756653,31219,16752846,11820,3002,4415,Tag0,unknown
1545011580362,0,59,1.29638671875E-5,70,75,62,492148,46935,16756653,31219,16752846,11820,3002,4415,Tag0,unknown
1545011580363,0,113,2.48291015625E-5,70,75,62,492148,46935,16756653,31219,16752846,11820,3002,4415,Tag0,unknown
1545011580363,0,-123,-2.70263671875E-5,70,75,62,492148,46935,16756653,31219,16752846,11820,3002,4415,Tag0,unknown
1545011580363,0,87,1.91162109375E-5,70,75,62,492148,46935,16756653,31219,16752846,11820,3002,4415,Tag0,unknown
1545011580363,0,38,8.349609375E-6,70,75,62,492148,46935,16756653,31219,16752846,11820,3002,4415,Tag0,unknown
1545011580363,0,49,1.07666015625E-5,70,75,62,492148,46935,16756653,31219,16752846,11820,3002,4415,Tag0,unknown
1545011580363,0,98,2.1533203125E-5,70,75,62,492148,46935,16756653,31219,16752846,11820,3002,4415,Tag0,unknown
1545011580379,0,122,2.6806640625E-5,70,75,62,492148,46935,16756653,31219,16752846,11820,3002,4415,Tag0,unknown
1545011580379,0,100,2.197265625E-5,70,75,62,492148,46935,16756653,31219,16752846,11820,3002,4415,Tag0,unknown
1545011580382,0,59,1.29638671875E-5,70,75,62,492148,46935,16756653,31219,16752846,11820,3002,4415,Tag0,unknown
1545011580382,0,56,1.23046875E-5,70,75,62,492148,46935,16756653,31219,16752846,11820,3002,4415,Tag0,unknown
1545011580382,0,100,2.197265625E-5,70,75,62,492148,46935,16756653,31219,16752846,11820,3002,4415,Tag0,unknown
1545011580383,0,-123,-2.70263671875E-5,70,75,62,492148,46935,16756653,31219,16752846,11820,3002,4415,Tag0,unknown
1545011580383,0,113,2.48291015625E-5,70,75,62,492148,46935,16756653,31219,16752846,11820,3002,4415,Tag0,unknown
1545011580383,0,58,1.2744140625E-5,70,75,62,492148,46935,16756653,31219,16752846,11820,3002,4415,Tag0,unknown
1545011580391,0,40,8.7890625E-6,70,75,62,492148,46935,16756653,31219,16752846,11820,3002,4415,Tag0,unknown
1545011580392,0,85,1.86767578125E-5,70,75,62,492148,46935,16756653,31219,16752846,11820,3002,4415,Tag0,unknown
1545011580392,0,-117,-2.5708007812499998E-5,70,75,62,492148,46935,16756653,31219,16752846,11820,3002,4415,Tag0,unknown
1545011580392,0,-126,-2.7685546875E-5,70,75,62,492148,46935,16756653,31219,16752846,11820,3002,4415,Tag0,unknown
1545011580393,0,69,1.51611328125E-5,70,75,62,492148,46935,16756653,31219,16752846,11820,3002,4415,Tag0,unknown
1545011580393,0,28,6.15234375E-6,70,75,62,492148,46935,16756653,31219,16752846,11820,3002,4415,Tag0,unknown
1545011580393,0,49,1.07666015625E-5,70,75,62,492148,46935,16756653,31219,16752846,11820,3002,4415,Tag0,unknown
1545011580393,0,90,1.9775390625E-5,70,75,62,492148,46935,16756653,31219,16752846,11820,3002,4415,Tag0,unknown
1545011580409,0,88,1.93359375E-5,70,75,62,492148,46935,16756653,31219,16752846,11820,3002,4415,Tag0,unknown
1545011580409,0,51,1.1206054687499999E-5,70,75,62,492148,46935,16756653,31219,16752846,11820,3002,4415,Tag0,unknown
1545011580409,0,36,7.91015625E-6,70,75,62,492148,46935,16756653,31219,16752846,11820,3002,4415,Tag0,unknown
1545011580409,0,73,1.6040039062500002E-5,70,75,62,492148,46935,16756653,31219,16752846,11820,3002,4415,Tag0,unknown
1545011580412,0,120,2.63671875E-5,70,75,62,492148,46935,16756653,31219,16752846,11820,3002,4415,Tag0,unknown
1545011580412,0,109,2.39501953125E-5,70,75,62,492148,46935,16756653,31219,16752846,11820,3002,4415,Tag0,unknown
1545011580413,0,64,1.40625E-5,70,75,62,492148,46935,16756653,31219,16752846,11820,3002,4415,Tag0,unknown
1545011580413,0,36,7.91015625E-6,70,75,62,492148,46935,16756653,31219,16752846,11820,3002,4415,Tag0,unknown
1545011580425,0,51,1.1206054687499999E-5,70,75,62,492148,46935,16756653,31219,16752846,11820,3002,4415,Tag0,unknown
1545011580426,0,102,2.2412109374999998E-5,70,75,62,492148,46935,16756653,31219,16752846,11820,3002,4415,Tag0,unknown
1545011580426,0,105,2.30712890625E-5,70,75,62,492148,46935,16756653,31219,16752846,11820,3002,4415,Tag0,unknown
1545011580426,0,53,1.1645507812500002E-5,70,75,62,492148,46935,16756653,31219,16752846,11820,3002,4415,Tag0,unknown
1545011580426,0,16,3.515625E-6,70,75,62,492148,46935,16756653,31219,16752846,11820,3002,4415,Tag0,unknown
1545011580427,0,38,8.349609375E-6,70,75,62,492148,46935,16756653,31219,16752846,11820,3002,4415,Tag0,unknown
1545011580427,0,106,2.3291015625000003E-5,70,75,62,492148,46935,16756653,31219,16752846,11820,3002,4415,Tag0,unknown
1545011580427,0,-119,-2.6147460937500004E-5,70,75,62,492148,46935,16756653,31219,16752846,11820,3002,4415,Tag0,unknown
1545011580441,0,92,2.021484375E-5,70,75,62,492148,46935,16756653,31219,16752846,11820,3002,4415,Tag0,unknown
1545011580442,0,34,7.4707031250000005E-6,70,75,62,492148,46935,16756653,31219,16752846,11820,3002,4415,Tag0,unknown
1545011580442,0,38,8.349609375E-6,70,75,62,492148,46935,16756653,31219,16752846,11820,3002,4415,Tag0,unknown
1545011580442,0,92,2.021484375E-5,70,75,62,492148,46935,16756653,31219,16752846,11820,3002,4415,Tag0,unknown
1545011580445,0,120,2.63671875E-5,70,75,62,492148,46935,16756653,31219,16752846,11820,3002,4415,Tag0,unknown
1545011580446,0,86,1.8896484375000003E-5,70,75,62,492148,46935,16756653,31219,16752846,11820,3002,4415,Tag0,unknown
1545011580446,0,43,9.448242187500001E-6,70,75,62,492148,46935,16756653,31219,16752846,11820,3002,4415,Tag0,unknown
1545011580446,0,48,1.0546875E-5,70,75,62,492148,46935,16756653,31219,16752846,11820,3002,4415,Tag0,unknown
1545011580446,0,96,2.109375E-5,70,75,62,492148,46935,16756653,31219,16752846,11820,3002,4415,Tag0,unknown
1545011580458,0,124,2.724609375E-5,70,75,62,492148,46935,16756653,31219,16752846,11820,3002,4415,Tag0,unknown
1545011580458,0,98,2.1533203125E-5,70,75,62,492148,46935,16756653,31219,16752846,11820,3002,4415,Tag0,unknown
1545011580459,0,43,9.448242187500001E-6,70,75,62,492148,46935,16756653,31219,16752846,11820,3002,4415,Tag0,unknown
1545011580459,0,34,7.4707031250000005E-6,70,75,62,492148,46935,16756653,31219,16752846,11820,3002,4415,Tag0,unknown
1545011580459,0,75,1.64794921875E-5,70,75,62,492148,46935,16756653,31219,16752846,11820,3002,4415,Tag0,unknown
1545011580459,0,106,2.3291015625000003E-5,70,75,62,492148,46935,16756653,31219,16752846,11820,3002,4415,Tag0,unknown
1545011580459,0,69,1.51611328125E-5,70,75,62,492148,46935,16756653,31219,16752846,11820,3002,4415,Tag0,unknown
1545011580460,0,16,3.515625E-6,70,75,62,492148,46935,16756653,31219,16752846,11820,3002,4415,Tag0,unknown
1545011580460,0,1,2.197265625E-7,70,75,62,492148,46935,16756653,31219,16752846,11820,3002,4415,Tag0,unknown
1545011580474,0,34,7.4707031250000005E-6,70,75,62,492148,46935,16756653,31219,16752846,11820,3002,4415,Tag0,unknown
1545011580474,0,86,1.8896484375000003E-5,70,75,62,492148,46935,16756653,31219,16752846,11820,3002,4415,Tag0,unknown
1545011580475,0,107,2.35107421875E-5,70,75,62,492148,46935,16756653,31219,16752846,11820,3002,4415,Tag0,unknown
1545011580478,0,71,1.56005859375E-5,70,75,62,492148,46935,16756653,31219,16752846,11820,3002,4415,Tag0,unknown
1545011580478,0,32,7.03125E-6,70,75,62,492148,46935,16756653,31219,16752846,11820,3002,4415,Tag0,unknown
1545011580478,0,40,8.7890625E-6,70,75,62,492148,46935,16756653,31219,16752846,11820,3002,4415,Tag0,unknown
1545011580479,0,77,1.69189453125E-5,70,75,62,492148,46935,16756653,31219,16752846,11820,3002,4415,Tag0,unknown
1545011580479,0,81,1.77978515625E-5,70,75,62,492148,46935,16756653,31219,16752846,11820,3002,4415,Tag0,unknown
1545011580492,0,49,1.07666015625E-5,70,75,62,492148,46935,16756653,31219,16752846,11820,3002,4415,Tag0,unknown
1545011580492,0,24,5.2734375E-6,70,75,62,492148,46935,16756653,31219,16752846,11820,3002,4415,Tag0,unknown
1545011580492,0,41,9.008789062499999E-6,70,75,62,492148,46935,16756653,31219,16752846,11820,3002,4415,Tag0,unknown
1545011580492,0,87,1.91162109375E-5,70,75,62,492148,46935,16756653,31219,16752846,11820,3002,4415,Tag0,unknown
1545011580492,0,93,2.04345703125E-5,70,75,62,492148,46935,16756653,31219,16752846,11820,3002,4415,Tag0,unknown
1545011580493,0,43,9.448242187500001E-6,70,75,62,492148,46935,16756653,31219,16752846,11820,3002,4415,Tag0,unknown
1545011580493,0,9,1.9775390625E-6,70,75,62,492148,46935,16756653,31219,16752846,11820,3002,4415,Tag0,unknown
1545011580493,0,40,8.7890625E-6,70,75,62,492148,46935,16756653,31219,16752846,11820,3002,4415,Tag0,unknown
1545011580494,0,98,2.1533203125E-5,70,75,62,492148,46935,16756653,31219,16752846,11820,3002,4415,Tag0,unknown
1545011580508,0,103,2.26318359375E-5,70,75,62,492148,46935,16756653,31219,16752846,11820,3002,4415,Tag0,unknown
1545011580509,0,64,1.40625E-5,70,75,62,492148,46935,16756653,31219,16752846,11820,3002,4415,Tag0,unknown
1545011580512,0,23,5.0537109375E-6,70,75,62,492148,46935,16756653,31219,16752846,11820,3002,4415,Tag0,unknown
1545011580512,0,41,9.008789062499999E-6,70,75,62,492148,46935,16756653,31219,16752846,11820,3002,4415,Tag0,unknown
1545011580512,0,102,2.2412109374999998E-5,70,75,62,492148,46935,16756653,31219,16752846,11820,3002,4415,Tag0,unknown
1545011580512,0,123,2.70263671875E-5,70,75,62,492148,46935,16756653,31219,16752846,11820,3002,4415,Tag0,unknown
1545011580512,0,87,1.91162109375E-5,70,75,62,492148,46935,16756653,31219,16752846,11820,3002,4415,Tag0,unknown
1545011580512,0,38,8.349609375E-6,70,75,62,492148,46935,16756653,31219,16752846,11820,3002,4415,Tag0,unknown
1545011580524,0,41,9.008789062499999E-6,70,75,62,492148,46935,16756653,31219,16752846,11820,3002,4415,Tag0,unknown
1545011580524,0,105,2.30712890625E-5,70,75,62,492148,46935,16756653,31219,16752846,11820,3002,4415,Tag0,unknown
1545011580524,0,-111,-2.43896484375E-5,70,75,62,492148,46935,16756653,31219,16752846,11820,3002,4415,Tag0,unknown
1545011580525,0,114,2.5048828125000003E-5,70,75,62,492148,46935,16756653,31219,16752846,11820,3002,4415,Tag0,unknown
1545011580525,0,54,1.1865234375000001E-5,70,75,62,492148,46935,16756653,31219,16752846,11820,3002,4415,Tag0,unknown
1545011580525,0,37,8.1298828125E-6,70,75,62,492148,46935,16756653,31219,16752846,11820,3002,4415,Tag0,unknown
1545011580525,0,90,1.9775390625E-5,70,75,62,492148,46935,16756653,31219,16752846,11820,3002,4415,Tag0,unknown
1545011580525,0,-122,-2.6806640625E-5,70,75,62,492148,46935,16756653,31219,16752846,11820,3002,4415,Tag0,unknown
1545011580541,0,116,2.548828125E-5,70,75,62,492148,46935,16756653,31219,16752846,11820,3002,4415,Tag0,unknown
1545011580541,0,71,1.56005859375E-5,70,75,62,492148,46935,16756653,31219,16752846,11820,3002,4415,Tag0,unknown
1545011580541,0,49,1.07666015625E-5,70,75,62,492148,46935,16756653,31219,16752846,11820,3002,4415,Tag0,unknown
1545011580541,0,83,1.82373046875E-5,70,75,62,492148,46935,16756653,31219,16752846,11820,3002,4415,Tag0,unknown
1545011580544,0,119,2.6147460937500004E-5,70,75,62,492148,46935,16756653,31219,16752846,11820,3002,4415,Tag0,unknown
1545011580544,0,92,2.021484375E-5,70,75,62,492148,46935,16756653,31219,16752846,11820,3002,4415,Tag0,unknown
1545011580545,0,48,1.0546875E-5,70,75,62,492148,46935,16756653,31219,16752846,11820,3002,4415,Tag0,unknown
1545011580545,0,41,9.008789062499999E-6,70,75,62,492148,46935,16756653,31219,16752846,11820,3002,4415,Tag0,unknown
1545011580545,0,84,1.8457031250000004E-5,70,75,62,492148,46935,16756653,31219,16752846,11820,3002,4415,Tag0,unknown
1545011580557,0,119,2.6147460937500004E-5,70,75,62,492148,46935,16756653,31219,16752846,11820,3002,4415,Tag0,unknown
1545011580558,0,103,2.26318359375E-5,70,75,62,492148,46935,16756653,31219,16752846,11820,3002,4415,Tag0,unknown
1545011580558,0,59,1.29638671875E-5,70,75,62,492148,46935,16756653,31219,16752846,11820,3002,4415,Tag0,unknown
1545011580558,0,21,4.614257812500001E-6,70,75,62,492148,46935,16756653,31219,16752846,11820,3002,4415,Tag0,unknown
1545011580558,0,33,7.2509765625E-6,70,75,62,492148,46935,16756653,31219,16752846,11820,3002,4415,Tag0,unknown
1545011580559,0,72,1.58203125E-5,70,75,62,492148,46935,16756653,31219,16752846,11820,3002,4415,Tag0,unknown
1545011580559,0,82,1.8017578124999998E-5,70,75,62,492148,46935,16756653,31219,16752846,11820,3002,4415,Tag0,unknown
1545011580559,0,52,1.142578125E-5,70,75,62,492148,46935,16756653,31219,16752846,11820,3002,4415,Tag0,unknown
1545011580574,0,26,5.712890625E-6,70,75,62,492148,46935,16756653,31219,16752846,11820,3002,4415,Tag0,unknown
1545011580574,0,48,1.0546875E-5,70,75,62,492148,46935,16756653,31219,16752846,11820,3002,4415,Tag0,unknown
1545011580574,0,86,1.8896484375000003E-5,70,75,62,492148,46935,16756653,31219,16752846,11820,3002,4415,Tag0,unknown
1545011580574,0,84,1.8457031250000004E-5,70,75,62,492148,46935,16756653,31219,16752846,11820,3002,4415,Tag0,unknown
1545011580578,0,48,1.0546875E-5,70,75,62,492148,46935,16756653,31219,16752846,11820,3002,4415,Tag0,unknown
1545011580579,0,24,5.2734375E-6,70,75,62,492148,46935,16756653,31219,16752846,11820,3002,4415,Tag0,unknown
1545011580579,0,38,8.349609375E-6,70,75,62,492148,46935,16756653,31219,16752846,11820,3002,4415,Tag0,unknown
1545011580579,0,72,1.58203125E-5,70,75,62,492148,46935,16756653,31219,16752846,11820,3002,4415,Tag0,unknown
1545011580579,0,67,1.4721679687500002E-5,70,75,62,492148,46935,16756653,31219,16752846,11820,3002,4415,Tag0,unknown
1545011580590,0,19,4.1748046875E-6,70,75,62,492148,46935,16756653,31219,16752846,11820,3002,4415,Tag0,unknown
1545011580591,0,-274,-6.0205078124999997E-5,70,75,62,492148,46935,16756653,31219,16752846,11820,3002,4415,Tag0,unknown
1545011580591,0,2,4.39453125E-7,70,75,62,492148,46935,16756653,31219,16752846,11820,3002,4415,Tag0,unknown
1545011580591,0,72,1.58203125E-5,70,75,62,492148,46935,16756653,31219,16752846,11820,3002,4415,Tag0,unknown
1545011580592,0,112,2.4609375E-5,70,75,62,492148,46935,16756653,31219,16752846,11820,3002,4415,Tag0,unknown
1545011580592,0,75,1.64794921875E-5,70,75,62,492148,46935,16756653,31219,16752846,11820,3002,4415,Tag0,unknown
1545011580592,0,16,3.515625E-6,70,75,62,492148,46935,16756653,31219,16752846,11820,3002,4415,Tag0,unknown
1545011580592,0,6,1.318359375E-6,70,75,62,492148,46935,16756653,31219,16752846,11820,3002,4415,Tag0,unknown
1545011580593,0,61,1.34033203125E-5,70,75,62,492148,46935,16756653,31219,16752846,11820,3002,4415,Tag0,unknown
1545011580608,0,97,2.13134765625E-5,70,75,62,492148,46935,16756653,31219,16752846,11820,3002,4415,Tag0,unknown
1545011580608,0,55,1.20849609375E-5,70,75,62,492148,46935,16756653,31219,16752846,11820,3002,4415,Tag0,unknown
1545011580611,0,6,1.318359375E-6,70,75,62,492148,46935,16756653,31219,16752846,11820,3002,4415,Tag0,unknown
1545011580611,0,10,2.197265625E-6,70,75,62,492148,46935,16756653,31219,16752846,11820,3002,4415,Tag0,unknown
1545011580611,0,55,1.20849609375E-5,70,75,62,492148,46935,16756653,31219,16752846,11820,3002,4415,Tag0,unknown
1545011580612,0,76,1.669921875E-5,70,75,62,492148,46935,16756653,31219,16752846,11820,3002,4415,Tag0,unknown
1545011580612,0,50,1.0986328125E-5,70,75,62,492148,46935,16756653,31219,16752846,11820,3002,4415,Tag0,unknown
1545011580612,0,17,3.7353515625000003E-6,70,75,62,492148,46935,16756653,31219,16752846,11820,3002,4415,Tag0,unknown
1545011580612,0,20,4.39453125E-6,70,75,62,492148,46935,16756653,31219,16752846,11820,3002,4415,Tag0,unknown
1545011580624,0,56,1.23046875E-5,70,75,62,492148,46935,16756653,31219,16752846,11820,3002,4415,Tag0,unknown
1545011580625,0,84,1.8457031250000004E-5,70,75,62,492148,46935,16756653,31219,16752846,11820,3002,4415,Tag0,unknown
1545011580625,0,70,1.5380859375E-5,70,75,62,492148,46935,16756653,31219,16752846,11820,3002,4415,Tag0,unknown
1545011580625,0,28,6.15234375E-6,70,75,62,492148,46935,16756653,31219,16752846,11820,3002,4415,Tag0,unknown
1545011580625,0,6,1.318359375E-6,70,75,62,492148,46935,16756653,31219,16752846,11820,3002,4415,Tag0,unknown
1545011580644,0,43,9.448242187500001E-6,70,75,62,492148,46935,16756653,31219,16752846,11820,3002,4415,Tag0,unknown
1545011580644,0,91,1.99951171875E-5,70,75,62,492148,46935,16756653,31219,16752846,11820,3002,4415,Tag0,unknown
1545011580657,0,73,1.6040039062500002E-5,70,75,62,492148,46935,16756653,31219,16752846,11820,3002,4415,Tag0,unknown
1545011580657,0,12,2.63671875E-6,70,75,62,492148,46935,16756653,31219,16752846,11820,3002,4415,Tag0,unknown
1545011580657,0,-267,-5.86669921875E-5,70,75,62,492148,46935,16756653,31219,16752846,11820,3002,4415,Tag0,unknown
1545011580658,0,21,4.614257812500001E-6,70,75,62,492148,46935,16756653,31219,16752846,11820,3002,4415,Tag0,unknown
1545011580658,0,64,1.40625E-5,70,75,62,492148,46935,16756653,31219,16752846,11820,3002,4415,Tag0,unknown
1545011580658,0,44,9.66796875E-6,70,75,62,492148,46935,16756653,31219,16752846,11820,3002,4415,Tag0,unknown
1545011580658,0,-265,-5.82275390625E-5,70,75,62,492148,46935,16756653,31219,16752846,11820,3002,4415,Tag0,unknown
1545011580659,0,-294,-6.4599609375E-5,70,75,62,492148,46935,16756653,31219,16752846,11820,3002,4415,Tag0,unknown
1545011580659,0,-264,-5.80078125E-5,70,75,62,492148,46935,16756653,31219,16752846,11820,3002,4415,Tag0,unknown
1545011580659,0,32,7.03125E-6,70,75,62,492148,46935,16756653,31219,16752846,11820,3002,4415,Tag0,unknown
1545011580659,0,11,2.4169921875E-6,70,75,62,492148,46935,16756653,31219,16752846,11820,3002,4415,Tag0,unknown
1545011580659,0,-305,-6.70166015625E-5,70,75,62,492148,46935,16756653,31219,16752846,11820,3002,4415,Tag0,unknown
1545011580660,0,-339,-7.448730468750001E-5,70,75,62,492148,46935,16756653,31219,16752846,11820,3002,4415,Tag0,unknown
1545011580660,0,-311,-6.833496093750001E-5,70,75,62,492148,46935,16756653,31219,16752846,11820,3002,4415,Tag0,unknown
1545011580660,0,-267,-5.86669921875E-5,70,75,62,492148,46935,16756653,31219,16752846,11820,3002,4415,Tag0,unknown
1545011580660,0,-263,-5.7788085937500005E-5,70,75,62,492148,46935,16756653,31219,16752846,11820,3002,4415,Tag0,unknown
1545011580660,0,-299,-6.56982421875E-5,70,75,62,492148,46935,16756653,31219,16752846,11820,3002,4415,Tag0,unknown
1545011580673,0,-326,-7.163085937500001E-5,70,75,62,492148,46935,16756653,31219,16752846,11820,3002,4415,Tag0,unknown
1545011580674,0,-292,-6.416015625000001E-5,70,75,62,492148,46935,16756653,31219,16752846,11820,3002,4415,Tag0,unknown
1545011580677,0,32,7.03125E-6,70,75,62,492148,46935,16756653,31219,16752846,11820,3002,4415,Tag0,unknown
1545011580677,0,59,1.29638671875E-5,70,75,62,492148,46935,16756653,31219,16752846,11820,3002,4415,Tag0,unknown
1545011580677,0,26,5.712890625E-6,70,75,62,492148,46935,16756653,31219,16752846,11820,3002,4415,Tag0,unknown
1545011580677,0,1,2.197265625E-7,70,75,62,492148,46935,16756653,31219,16752846,11820,3002,4415,Tag0,unknown
1545011580677,0,32,7.03125E-6,70,75,62,492148,46935,16756653,31219,16752846,11820,3002,4415,Tag0,unknown
1545011580678,0,91,1.99951171875E-5,70,75,62,492148,46935,16756653,31219,16752846,11820,3002,4415,Tag0,unknown
1545011580678,0,108,2.3730468750000002E-5,70,75,62,492148,46935,16756653,31219,16752846,11820,3002,4415,Tag0,unknown
1545011580691,0,71,1.56005859375E-5,70,75,62,492148,46935,16756653,31219,16752846,11820,3002,4415,Tag0,unknown
1545011580691,0,42,9.228515625000002E-6,70,75,62,492148,46935,16756653,31219,16752846,11820,3002,4415,Tag0,unknown
1545011580691,0,65,1.42822265625E-5,70,75,62,492148,46935,16756653,31219,16752846,11820,3002,4415,Tag0,unknown
1545011580692,0,116,2.548828125E-5,70,75,62,492148,46935,16756653,31219,16752846,11820,3002,4415,Tag0,unknown
1545011580692,0,-126,-2.7685546875E-5,70,75,62,492148,46935,16756653,31219,16752846,11820,3002,4415,Tag0,unknown
1545011580692,0,84,1.8457031250000004E-5,70,75,62,492148,46935,16756653,31219,16752846,11820,3002,4415,Tag0,unknown
1545011580692,0,39,8.5693359375E-6,70,75,62,492148,46935,16756653,31219,16752846,11820,3002,4415,Tag0,unknown
1545011580693,0,50,1.0986328125E-5,70,75,62,492148,46935,16756653,31219,16752846,11820,3002,4415,Tag0,unknown
1545011580693,0,86,1.8896484375000003E-5,70,75,62,492148,46935,16756653,31219,16752846,11820,3002,4415,Tag0,unknown
1545011580707,0,97,2.13134765625E-5,70,75,62,492148,46935,16756653,31219,16752846,11820,3002,4415,Tag0,unknown
1545011580710,0,65,1.42822265625E-5,70,75,62,492148,46935,16756653,31219,16752846,11820,3002,4415,Tag0,unknown
1545011580710,0,19,4.1748046875E-6,70,75,62,492148,46935,16756653,31219,16752846,11820,3002,4415,Tag0,unknown
1545011580710,0,10,2.197265625E-6,70,75,62,492148,46935,16756653,31219,16752846,11820,3002,4415,Tag0,unknown
1545011580710,0,60,1.318359375E-5,70,75,62,492148,46935,16756653,31219,16752846,11820,3002,4415,Tag0,unknown
1545011580710,0,106,2.3291015625000003E-5,70,75,62,492148,46935,16756653,31219,16752846,11820,3002,4415,Tag0,unknown
1545011580711,0,86,1.8896484375000003E-5,70,75,62,492148,46935,16756653,31219,16752846,11820,3002,4415,Tag0,unknown
1545011580711,0,26,5.712890625E-6,70,75,62,492148,46935,16756653,31219,16752846,11820,3002,4415,Tag0,unknown
1545011580724,0,16,3.515625E-6,70,75,62,492148,46935,16756653,31219,16752846,11820,3002,4415,Tag0,unknown
1545011580725,0,59,1.29638671875E-5,70,75,62,492148,46935,16756653,31219,16752846,11820,3002,4415,Tag0,unknown
1545011580725,0,100,2.197265625E-5,70,75,62,492148,46935,16756653,31219,16752846,11820,3002,4415,Tag0,unknown
1545011580725,0,96,2.109375E-5,70,75,62,492148,46935,16756653,31219,16752846,11820,3002,4415,Tag0,unknown
1545011580725,0,56,1.23046875E-5,70,75,62,492148,46935,16756653,31219,16752846,11820,3002,4415,Tag0,unknown
1545011580725,0,44,9.66796875E-6,70,75,62,492148,46935,16756653,31219,16752846,11820,3002,4415,Tag0,unknown
1545011580726,0,82,1.8017578124999998E-5,70,75,62,492148,46935,16756653,31219,16752846,11820,3002,4415,Tag0,unknown
1545011580726,0,104,2.28515625E-5,70,75,62,492148,46935,16756653,31219,16752846,11820,3002,4415,Tag0,unknown
1545011580727,0,83,1.82373046875E-5,70,75,62,492148,46935,16756653,31219,16752846,11820,3002,4415,Tag0,unknown
1545011580745,0,43,9.448242187500001E-6,70,75,62,492148,46935,16756653,31219,16752846,11820,3002,4415,Tag0,unknown
1545011580745,0,26,5.712890625E-6,70,75,62,492148,46935,16756653,31219,16752846,11820,3002,4415,Tag0,unknown
1545011580748,0,56,1.23046875E-5,70,75,62,492148,46935,16756653,31219,16752846,11820,3002,4415,Tag0,unknown
1545011580748,0,102,2.2412109374999998E-5,70,75,62,492148,46935,16756653,31219,16752846,11820,3002,4415,Tag0,unknown
1545011580749,0,88,1.93359375E-5,70,75,62,492148,46935,16756653,31219,16752846,11820,3002,4415,Tag0,unknown
1545011580757,0,17,3.7353515625000003E-6,70,75,62,492148,46935,16756653,31219,16752846,11820,3002,4415,Tag0,unknown
1545011580757,0,-305,-6.70166015625E-5,70,75,62,492148,46935,16756653,31219,16752846,11820,3002,4415,Tag0,unknown
1545011580757,0,-310,-6.8115234375E-5,70,75,62,492148,46935,16756653,31219,16752846,11820,3002,4415,Tag0,unknown
1545011580758,0,9,1.9775390625E-6,70,75,62,492148,46935,16756653,31219,16752846,11820,3002,4415,Tag0,unknown
1545011580758,0,80,1.7578125E-5,70,75,62,492148,46935,16756653,31219,16752846,11820,3002,4415,Tag0,unknown
1545011580758,0,93,2.04345703125E-5,70,75,62,492148,46935,16756653,31219,16752846,11820,3002,4415,Tag0,unknown
1545011580758,0,57,1.2524414062500001E-5,70,75,62,492148,46935,16756653,31219,16752846,11820,3002,4415,Tag0,unknown
1545011580759,0,16,3.515625E-6,70,75,62,492148,46935,16756653,31219,16752846,11820,3002,4415,Tag0,unknown
1545011580759,0,19,4.1748046875E-6,70,75,62,492148,46935,16756653,31219,16752846,11820,3002,4415,Tag0,unknown
1545011580759,0,43,9.448242187500001E-6,70,75,62,492148,46935,16756653,31219,16752846,11820,3002,4415,Tag0,unknown
1545011580759,0,57,1.2524414062500001E-5,70,75,62,492148,46935,16756653,31219,16752846,11820,3002,4415,Tag0,unknown
1545011580759,0,58,1.2744140625E-5,70,75,62,492148,46935,16756653,31219,16752846,11820,3002,4415,Tag0,unknown
1545011580774,0,74,1.6259765625E-5,70,75,62,492148,46935,16756653,31219,16752846,11820,3002,4415,Tag0,unknown
1545011580775,0,101,2.2192382812500002E-5,70,75,62,492148,46935,16756653,31219,16752846,11820,3002,4415,Tag0,unknown
1545011580775,0,93,2.04345703125E-5,70,75,62,492148,46935,16756653,31219,16752846,11820,3002,4415,Tag0,unknown
1545011580775,0,36,7.91015625E-6,70,75,62,492148,46935,16756653,31219,16752846,11820,3002,4415,Tag0,unknown
1545011580775,0,-277,-6.0864257812500005E-5,70,75,62,492148,46935,16756653,31219,16752846,11820,3002,4415,Tag0,unknown
1545011580775,0,-281,-6.17431640625E-5,70,75,62,492148,46935,16756653,31219,16752846,11820,3002,4415,Tag0,unknown
1545011580778,0,34,7.4707031250000005E-6,70,75,62,492148,46935,16756653,31219,16752846,11820,3002,4415,Tag0,unknown
1545011580779,0,81,1.77978515625E-5,70,75,62,492148,46935,16756653,31219,16752846,11820,3002,4415,Tag0,unknown
1545011580793,0,61,1.34033203125E-5,70,75,62,492148,46935,16756653,31219,16752846,11820,3002,4415,Tag0,unknown
1545011580793,0,25,5.4931640625E-6,70,75,62,492148,46935,16756653,31219,16752846,11820,3002,4415,Tag0,unknown
1545011580794,0,28,6.15234375E-6,70,75,62,492148,46935,16756653,31219,16752846,11820,3002,4415,Tag0,unknown
1545011580794,0,73,1.6040039062500002E-5,70,75,62,492148,46935,16756653,31219,16752846,11820,3002,4415,Tag0,unknown
1545011580794,0,92,2.021484375E-5,70,75,62,492148,46935,16756653,31219,16752846,11820,3002,4415,Tag0,unknown
1545011580794,0,52,1.142578125E-5,70,75,62,492148,46935,16756653,31219,16752846,11820,3002,4415,Tag0,unknown
1545011580794,0,9,1.9775390625E-6,70,75,62,492148,46935,16756653,31219,16752846,11820,3002,4415,Tag0,unknown
1545011580795,0,8,1.7578125E-6,70,75,62,492148,46935,16756653,31219,16752846,11820,3002,4415,Tag0,unknown
1545011580795,0,53,1.1645507812500002E-5,70,75,62,492148,46935,16756653,31219,16752846,11820,3002,4415,Tag0,unknown
1545011580809,0,98,2.1533203125E-5,70,75,62,492148,46935,16756653,31219,16752846,11820,3002,4415,Tag0,unknown
1545011580810,0,86,1.8896484375000003E-5,70,75,62,492148,46935,16756653,31219,16752846,11820,3002,4415,Tag0,unknown
1545011580810,0,48,1.0546875E-5,70,75,62,492148,46935,16756653,31219,16752846,11820,3002,4415,Tag0,unknown
1545011580810,0,34,7.4707031250000005E-6,70,75,62,492148,46935,16756653,31219,16752846,11820,3002,4415,Tag0,unknown
1545011580810,0,76,1.669921875E-5,70,75,62,492148,46935,16756653,31219,16752846,11820,3002,4415,Tag0,unknown
1545011580811,0,109,2.39501953125E-5,70,75,62,492148,46935,16756653,31219,16752846,11820,3002,4415,Tag0,unknown
1545011580811,0,84,1.8457031250000004E-5,70,75,62,492148,46935,16756653,31219,16752846,11820,3002,4415,Tag0,unknown
1545011580811,0,25,5.4931640625E-6,70,75,62,492148,46935,16756653,31219,16752846,11820,3002,4415,Tag0,unknown
1545011580811,0,-260,-5.712890625E-5,70,75,62,492148,46935,16756653,31219,16752846,11820,3002,4415,Tag0,unknown
1545011580811,0,25,5.4931640625E-6,70,75,62,492148,46935,16756653,31219,16752846,11820,3002,4415,Tag0,unknown
1545011580827,0,72,1.58203125E-5,70,75,62,492148,46935,16756653,31219,16752846,11820,3002,4415,Tag0,unknown
1545011580827,0,70,1.5380859375E-5,70,75,62,492148,46935,16756653,31219,16752846,11820,3002,4415,Tag0,unknown
1545011580827,0,40,8.7890625E-6,70,75,62,492148,46935,16756653,31219,16752846,11820,3002,4415,Tag0,unknown
1545011580828,0,27,5.9326171875000005E-6,70,75,62,492148,46935,16756653,31219,16752846,11820,3002,4415,Tag0,unknown
1545011580828,0,58,1.2744140625E-5,70,75,62,492148,46935,16756653,31219,16752846,11820,3002,4415,Tag0,unknown
1545011580828,0,108,2.3730468750000002E-5,70,75,62,492148,46935,16756653,31219,16752846,11820,3002,4415,Tag0,unknown
1545011580828,0,113,2.48291015625E-5,70,75,62,492148,46935,16756653,31219,16752846,11820,3002,4415,Tag0,unknown
1545011580829,0,59,1.29638671875E-5,70,75,62,492148,46935,16756653,31219,16752846,11820,3002,4415,Tag0,unknown
1545011580843,0,16,3.515625E-6,70,75,62,492148,46935,16756653,31219,16752846,11820,3002,4415,Tag0,unknown
1545011580844,0,33,7.2509765625E-6,70,75,62,492148,46935,16756653,31219,16752846,11820,3002,4415,Tag0,unknown
1545011580844,0,85,1.86767578125E-5,70,75,62,492148,46935,16756653,31219,16752846,11820,3002,4415,Tag0,unknown
1545011580844,0,98,2.1533203125E-5,70,75,62,492148,46935,16756653,31219,16752846,11820,3002,4415,Tag0,unknown
1545011580844,0,55,1.20849609375E-5,70,75,62,492148,46935,16756653,31219,16752846,11820,3002,4415,Tag0,unknown
1545011580844,0,21,4.614257812500001E-6,70,75,62,492148,46935,16756653,31219,16752846,11820,3002,4415,Tag0,unknown
1545011580845,0,51,1.1206054687499999E-5,70,75,62,492148,46935,16756653,31219,16752846,11820,3002,4415,Tag0,unknown
1545011580845,0,108,2.3730468750000002E-5,70,75,62,492148,46935,16756653,31219,16752846,11820,3002,4415,Tag0,unknown
1545011580859,0,119,2.6147460937500004E-5,70,75,62,492148,46935,16756653,31219,16752846,11820,3002,4415,Tag0,unknown
1545011580859,0,75,1.64794921875E-5,70,75,62,492148,46935,16756653,31219,16752846,11820,3002,4415,Tag0,unknown
1545011580862,0,27,5.9326171875000005E-6,70,75,62,492148,46935,16756653,31219,16752846,11820,3002,4415,Tag0,unknown
1545011580862,0,20,4.39453125E-6,70,75,62,492148,46935,16756653,31219,16752846,11820,3002,4415,Tag0,unknown
1545011580862,0,60,1.318359375E-5,70,75,62,492148,46935,16756653,31219,16752846,11820,3002,4415,Tag0,unknown
1545011580863,0,77,1.69189453125E-5,70,75,62,492148,46935,16756653,31219,16752846,11820,3002,4415,Tag0,unknown
1545011580863,0,35,7.6904296875E-6,70,75,62,492148,46935,16756653,31219,16752846,11820,3002,4415,Tag0,unknown
1545011580863,0,-265,-5.82275390625E-5,70,75,62,492148,46935,16756653,31219,16752846,11820,3002,4415,Tag0,unknown
1545011580876,0,-261,-5.73486328125E-5,70,75,62,492148,46935,16756653,31219,16752846,11820,3002,4415,Tag0,unknown
1545011580876,0,45,9.8876953125E-6,70,75,62,492148,46935,16756653,31219,16752846,11820,3002,4415,Tag0,unknown
1545011580877,0,83,1.82373046875E-5,70,75,62,492148,46935,16756653,31219,16752846,11820,3002,4415,Tag0,unknown
1545011580877,0,54,1.1865234375000001E-5,70,75,62,492148,46935,16756653,31219,16752846,11820,3002,4415,Tag0,unknown
1545011580877,0,9,1.9775390625E-6,70,75,62,492148,46935,16756653,31219,16752846,11820,3002,4415,Tag0,unknown
1545011580878,0,2,4.39453125E-7,70,75,62,492148,46935,16756653,31219,16752846,11820,3002,4415,Tag0,unknown
1545011580878,0,39,8.5693359375E-6,70,75,62,492148,46935,16756653,31219,16752846,11820,3002,4415,Tag0,unknown
1545011580878,0,81,1.77978515625E-5,70,75,62,492148,46935,16756653,31219,16752846,11820,3002,4415,Tag0,unknown
1545011580878,0,77,1.69189453125E-5,70,75,62,492148,46935,16756653,31219,16752846,11820,3002,4415,Tag0,unknown
1545011580890,0,41,9.008789062499999E-6,70,75,62,492148,46935,16756653,31219,16752846,11820,3002,4415,Tag0,unknown
1545011580890,0,28,6.15234375E-6,70,75,62,492148,46935,16756653,31219,16752846,11820,3002,4415,Tag0,unknown
1545011580891,0,58,1.2744140625E-5,70,75,62,492148,46935,16756653,31219,16752846,11820,3002,4415,Tag0,unknown
1545011580891,0,89,1.95556640625E-5,70,75,62,492148,46935,16756653,31219,16752846,11820,3002,4415,Tag0,unknown
1545011580894,0,84,1.8457031250000004E-5,70,75,62,492148,46935,16756653,31219,16752846,11820,3002,4415,Tag0,unknown
1545011580895,0,35,7.6904296875E-6,70,75,62,492148,46935,16756653,31219,16752846,11820,3002,4415,Tag0,unknown
1545011580895,0,2,4.39453125E-7,70,75,62,492148,46935,16756653,31219,16752846,11820,3002,4415,Tag0,unknown
1545011580907,0,29,6.3720703125E-6,70,75,62,492148,46935,16756653,31219,16752846,11820,3002,4415,Tag0,unknown
1545011580907,0,80,1.7578125E-5,70,75,62,492148,46935,16756653,31219,16752846,11820,3002,4415,Tag0,unknown
1545011580908,0,83,1.82373046875E-5,70,75,62,492148,46935,16756653,31219,16752846,11820,3002,4415,Tag0,unknown
1545011580908,0,40,8.7890625E-6,70,75,62,492148,46935,16756653,31219,16752846,11820,3002,4415,Tag0,unknown
1545011580908,0,16,3.515625E-6,70,75,62,492148,46935,16756653,31219,16752846,11820,3002,4415,Tag0,unknown
1545011580908,0,43,9.448242187500001E-6,70,75,62,492148,46935,16756653,31219,16752846,11820,3002,4415,Tag0,unknown
1545011580908,0,87,1.91162109375E-5,70,75,62,492148,46935,16756653,31219,16752846,11820,3002,4415,Tag0,unknown
1545011580908,0,87,1.91162109375E-5,70,75,62,492148,46935,16756653,31219,16752846,11820,3002,4415,Tag0,unknown
1545011580924,0,44,9.66796875E-6,70,75,62,492148,46935,16756653,31219,16752846,11820,3002,4415,Tag0,unknown
1545011580924,0,10,2.197265625E-6,70,75,62,492148,46935,16756653,31219,16752846,11820,3002,4415,Tag0,unknown
1545011580924,0,28,6.15234375E-6,70,75,62,492148,46935,16756653,31219,16752846,11820,3002,4415,Tag0,unknown
1545011580924,0,80,1.7578125E-5,70,75,62,492148,46935,16756653,31219,16752846,11820,3002,4415,Tag0,unknown
1545011580925,0,88,1.93359375E-5,70,75,62,492148,46935,16756653,31219,16752846,11820,3002,4415,Tag0,unknown
1545011580925,0,56,1.23046875E-5,70,75,62,492148,46935,16756653,31219,16752846,11820,3002,4415,Tag0,unknown
1545011580925,0,36,7.91015625E-6,70,75,62,492148,46935,16756653,31219,16752846,11820,3002,4415,Tag0,unknown
1545011580925,0,61,1.34033203125E-5,70,75,62,492148,46935,16756653,31219,16752846,11820,3002,4415,Tag0,unknown
1545011580928,0,115,2.52685546875E-5,70,75,62,492148,46935,16756653,31219,16752846,11820,3002,4415,Tag0,unknown
1545011580928,0,-127,-2.79052734375E-5,70,75,62,492148,46935,16756653,31219,16752846,11820,3002,4415,Tag0,unknown
1545011580941,0,82,1.8017578124999998E-5,70,75,62,492148,46935,16756653,31219,16752846,11820,3002,4415,Tag0,unknown
1545011580941,0,37,8.1298828125E-6,70,75,62,492148,46935,16756653,31219,16752846,11820,3002,4415,Tag0,unknown
1545011580942,0,44,9.66796875E-6,70,75,62,492148,46935,16756653,31219,16752846,11820,3002,4415,Tag0,unknown
1545011580942,0,88,1.93359375E-5,70,75,62,492148,46935,16756653,31219,16752846,11820,3002,4415,Tag0,unknown
1545011580942,0,105,2.30712890625E-5,70,75,62,492148,46935,16756653,31219,16752846,11820,3002,4415,Tag0,unknown
1545011580943,0,76,1.669921875E-5,70,75,62,492148,46935,16756653,31219,16752846,11820,3002,4415,Tag0,unknown
1545011580943,0,52,1.142578125E-5,70,75,62,492148,46935,16756653,31219,16752846,11820,3002,4415,Tag0,unknown
1545011580959,0,69,1.51611328125E-5,70,75,62,492148,46935,16756653,31219,16752846,11820,3002,4415,Tag0,unknown
1545011580960,0,108,2.3730468750000002E-5,70,75,62,492148,46935,16756653,31219,16752846,11820,3002,4415,Tag0,unknown
1545011580960,0,119,2.6147460937500004E-5,70,75,62,492148,46935,16756653,31219,16752846,11820,3002,4415,Tag0,unknown
1545011580960,0,80,1.7578125E-5,70,75,62,492148,46935,16756653,31219,16752846,11820,3002,4415,Tag0,unknown
1545011580960,0,23,5.0537109375E-6,70,75,62,492148,46935,16756653,31219,16752846,11820,3002,4415,Tag0,unknown
1545011580960,0,9,1.9775390625E-6,70,75,62,492148,46935,16756653,31219,16752846,11820,3002,4415,Tag0,unknown
1545011580961,0,54,1.1865234375000001E-5,70,75,62,492148,46935,16756653,31219,16752846,11820,3002,4415,Tag0,unknown
1545011580961,0,87,1.91162109375E-5,70,75,62,492148,46935,16756653,31219,16752846,11820,3002,4415,Tag0,unknown
1545011580964,0,81,1.77978515625E-5,70,75,62,492148,46935,16756653,31219,16752846,11820,3002,4415,Tag0,unknown
1545011580964,0,55,1.20849609375E-5,70,75,62,492148,46935,16756653,31219,16752846,11820,3002,4415,Tag0,unknown
1545011580964,0,44,9.66796875E-6,70,75,62,492148,46935,16756653,31219,16752846,11820,3002,4415,Tag0,unknown
1545011580974,0,69,1.51611328125E-5,70,75,62,492148,46935,16756653,31219,16752846,11820,3002,4415,Tag0,unknown
1545011580975,0,100,2.197265625E-5,70,75,62,492148,46935,16756653,31219,16752846,11820,3002,4415,Tag0,unknown
1545011580975,0,80,1.7578125E-5,70,75,62,492148,46935,16756653,31219,16752846,11820,3002,4415,Tag0,unknown
1545011580976,0,34,7.4707031250000005E-6,70,75,62,492148,46935,16756653,31219,16752846,11820,3002,4415,Tag0,unknown
1545011580976,0,25,5.4931640625E-6,70,75,62,492148,46935,16756653,31219,16752846,11820,3002,4415,Tag0,unknown
1545011580976,0,69,1.51611328125E-5,70,75,62,492148,46935,16756653,31219,16752846,11820,3002,4415,Tag0,unknown
1545011580976,0,104,2.28515625E-5,70,75,62,492148,46935,16756653,31219,16752846,11820,3002,4415,Tag0,unknown
1545011580991,0,83,1.82373046875E-5,70,75,62,492148,46935,16756653,31219,16752846,11820,3002,4415,Tag0,unknown
1545011580991,0,39,8.5693359375E-6,70,75,62,492148,46935,16756653,31219,16752846,11820,3002,4415,Tag0,unknown
1545011580991,0,34,7.4707031250000005E-6,70,75,62,492148,46935,16756653,31219,16752846,11820,3002,4415,Tag0,unknown
1545011580992,0,69,1.51611328125E-5,70,75,62,492148,46935,16756653,31219,16752846,11820,3002,4415,Tag0,unknown
1545011580992,0,106,2.3291015625000003E-5,70,75,62,492148,46935,16756653,31219,16752846,11820,3002,4415,Tag0,unknown
1545011580995,0,102,2.2412109374999998E-5,70,75,62,492148,46935,16756653,31219,16752846,11820,3002,4415,Tag0,unknown
1545011580996,0,57,1.2524414062500001E-5,70,75,62,492148,46935,16756653,31219,16752846,11820,3002,4415,Tag0,unknown
1545011580996,0,23,5.0537109375E-6,70,75,62,492148,46935,16756653,31219,16752846,11820,3002,4415,Tag0,unknown
1545011580996,0,41,9.008789062499999E-6,70,75,62,492148,46935,16756653,31219,16752846,11820,3002,4415,Tag0,unknown
1545011581007,0,96,2.109375E-5,70,75,62,492148,46935,16756653,31219,16752846,11820,3002,4415,Tag0,unknown
1545011581011,0,103,2.26318359375E-5,64,64,62,1363184,16771435,12773,31254,6103,5451,2616,4783,Tag0,unknown
1545011581011,0,58,1.2744140625E-5,64,64,62,1363184,16771435,12773,31254,6103,5451,2616,4783,Tag0,unknown
1545011581011,0,20,4.39453125E-6,64,64,62,1363184,16771435,12773,31254,6103,5451,2616,4783,Tag0,unknown
1545011581011,0,34,7.4707031250000005E-6,64,64,62,1363184,16771435,12773,31254,6103,5451,2616,4783,Tag0,unknown
1545011581011,0,83,1.82373046875E-5,64,64,62,1363184,16771435,12773,31254,6103,5451,2616,4783,Tag0,unknown
1545011581012,0,90,1.9775390625E-5,64,64,62,1363184,16771435,12773,31254,6103,5451,2616,4783,Tag0,unknown
1545011581027,0,44,9.66796875E-6,64,64,62,1363184,16771435,12773,31254,6103,5451,2616,4783,Tag0,unknown
1545011581028,0,8,1.7578125E-6,64,64,62,1363184,16771435,12773,31254,6103,5451,2616,4783,Tag0,unknown
1545011581028,0,21,4.614257812500001E-6,64,64,62,1363184,16771435,12773,31254,6103,5451,2616,4783,Tag0,unknown
1545011581031,0,67,1.4721679687500002E-5,64,64,62,1363184,16771435,12773,31254,6103,5451,2616,4783,Tag0,unknown
1545011581031,0,82,1.8017578124999998E-5,64,64,62,1363184,16771435,12773,31254,6103,5451,2616,4783,Tag0,unknown
1545011581031,0,48,1.0546875E-5,64,64,62,1363184,16771435,12773,31254,6103,5451,2616,4783,Tag0,unknown
1545011581032,0,13,2.8564453125E-6,64,64,62,1363184,16771435,12773,31254,6103,5451,2616,4783,Tag0,unknown
1545011581032,0,23,5.0537109375E-6,64,64,62,1363184,16771435,12773,31254,6103,5451,2616,4783,Tag0,unknown
1545011581032,0,73,1.6040039062500002E-5,64,64,62,1363184,16771435,12773,31254,6103,5451,2616,4783,Tag0,unknown
1545011581032,0,92,2.021484375E-5,64,64,62,1363184,16771435,12773,31254,6103,5451,2616,4783,Tag0,unknown
1545011581032,0,54,1.1865234375000001E-5,64,64,62,1363184,16771435,12773,31254,6103,5451,2616,4783,Tag0,unknown
1545011581033,0,-259,-5.69091796875E-5,64,64,62,1363184,16771435,12773,31254,6103,5451,2616,4783,Tag0,unknown
1545011581041,0,-265,-5.82275390625E-5,64,64,62,1363184,16771435,12773,31254,6103,5451,2616,4783,Tag0,unknown
1545011581042,0,37,8.1298828125E-6,64,64,62,1363184,16771435,12773,31254,6103,5451,2616,4783,Tag0,unknown
1545011581043,0,72,1.58203125E-5,64,64,62,1363184,16771435,12773,31254,6103,5451,2616,4783,Tag0,unknown
1545011581043,0,52,1.142578125E-5,64,64,62,1363184,16771435,12773,31254,6103,5451,2616,4783,Tag0,unknown
1545011581043,0,8,1.7578125E-6,64,64,62,1363184,16771435,12773,31254,6103,5451,2616,4783,Tag0,unknown
1545011581043,0,3,6.591796875E-7,64,64,62,1363184,16771435,12773,31254,6103,5451,2616,4783,Tag0,unknown
1545011581057,0,55,1.20849609375E-5,64,64,62,1363184,16771435,12773,31254,6103,5451,2616,4783,Tag0,unknown
1545011581058,0,90,1.9775390625E-5,64,64,62,1363184,16771435,12773,31254,6103,5451,2616,4783,Tag0,unknown
1545011581058,0,57,1.2524414062500001E-5,64,64,62,1363184,16771435,12773,31254,6103,5451,2616,4783,Tag0,unknown
1545011581058,0,5,1.0986328125E-6,64,64,62,1363184,16771435,12773,31254,6103,5451,2616,4783,Tag0,unknown
1545011581058,0,2,4.39453125E-7,64,64,62,1363184,16771435,12773,31254,6103,5451,2616,4783,Tag0,unknown
1545011581059,0,53,1.1645507812500002E-5,64,64,62,1363184,16771435,12773,31254,6103,5451,2616,4783,Tag0,unknown
1545011581062,0,89,1.95556640625E-5,64,64,62,1363184,16771435,12773,31254,6103,5451,2616,4783,Tag0,unknown
1545011581064,0,65,1.42822265625E-5,64,64,62,1363184,16771435,12773,31254,6103,5451,2616,4783,Tag0,unknown
1545011581065,0,17,3.7353515625000003E-6,64,64,62,1363184,16771435,12773,31254,6103,5451,2616,4783,Tag0,unknown
1545011581074,0,4,8.7890625E-7,64,64,62,1363184,16771435,12773,31254,6103,5451,2616,4783,Tag0,unknown
1545011581074,0,44,9.66796875E-6,64,64,62,1363184,16771435,12773,31254,6103,5451,2616,4783,Tag0,unknown
1545011581075,0,104,2.28515625E-5,64,64,62,1363184,16771435,12773,31254,6103,5451,2616,4783,Tag0,unknown
1545011581075,0,113,2.48291015625E-5,64,64,62,1363184,16771435,12773,31254,6103,5451,2616,4783,Tag0,unknown
1545011581077,0,77,1.69189453125E-5,64,64,62,1363184,16771435,12773,31254,6103,5451,2616,4783,Tag0,unknown
1545011581077,0,51,1.1206054687499999E-5,64,64,62,1363184,16771435,12773,31254,6103,5451,2616,4783,Tag0,unknown
1545011581093,0,57,1.2524414062500001E-5,64,64,62,1363184,16771435,12773,31254,6103,5451,2616,4783,Tag0,unknown
1545011581093,0,89,1.95556640625E-5,64,64,62,1363184,16771435,12773,31254,6103,5451,2616,4783,Tag0,unknown
1545011581094,0,92,2.021484375E-5,64,64,62,1363184,16771435,12773,31254,6103,5451,2616,4783,Tag0,unknown
1545011581094,0,50,1.0986328125E-5,64,64,62,1363184,16771435,12773,31254,6103,5451,2616,4783,Tag0,unknown
1545011581094,0,6,1.318359375E-6,64,64,62,1363184,16771435,12773,31254,6103,5451,2616,4783,Tag0,unknown
1545011581095,0,17,3.7353515625000003E-6,64,64,62,1363184,16771435,12773,31254,6103,5451,2616,4783,Tag0,unknown
1545011581096,0,65,1.42822265625E-5,64,64,62,1363184,16771435,12773,31254,6103,5451,2616,4783,Tag0,unknown
1545011581096,0,82,1.8017578124999998E-5,64,64,62,1363184,16771435,12773,31254,6103,5451,2616,4783,Tag0,unknown
1545011581100,0,51,1.1206054687499999E-5,64,64,62,1363184,16771435,12773,31254,6103,5451,2616,4783,Tag0,unknown
1545011581101,0,20,4.39453125E-6,64,64,62,1363184,16771435,12773,31254,6103,5451,2616,4783,Tag0,unknown
1545011581101,0,26,5.712890625E-6,64,64,62,1363184,16771435,12773,31254,6103,5451,2616,4783,Tag0,unknown
1545011581101,0,66,1.4501953125E-5,64,64,62,1363184,16771435,12773,31254,6103,5451,2616,4783,Tag0,unknown
1545011581110,0,80,1.7578125E-5,64,64,62,1363184,16771435,12773,31254,6103,5451,2616,4783,Tag0,unknown
1545011581111,0,61,1.34033203125E-5,64,64,62,1363184,16771435,12773,31254,6103,5451,2616,4783,Tag0,unknown
1545011581111,0,42,9.228515625000002E-6,64,64,62,1363184,16771435,12773,31254,6103,5451,2616,4783,Tag0,unknown
1545011581111,0,51,1.1206054687499999E-5,64,64,62,1363184,16771435,12773,31254,6103,5451,2616,4783,Tag0,unknown
1545011581112,0,87,1.91162109375E-5,64,64,62,1363184,16771435,12773,31254,6103,5451,2616,4783,Tag0,unknown
1545011581112,0,102,2.2412109374999998E-5,64,64,62,1363184,16771435,12773,31254,6103,5451,2616,4783,Tag0,unknown
1545011581112,0,59,1.29638671875E-5,64,64,62,1363184,16771435,12773,31254,6103,5451,2616,4783,Tag0,unknown
1545011581113,0,19,4.1748046875E-6,64,64,62,1363184,16771435,12773,31254,6103,5451,2616,4783,Tag0,unknown
1545011581125,0,21,4.614257812500001E-6,64,64,62,1363184,16771435,12773,31254,6103,5451,2616,4783,Tag0,unknown
1545011581125,0,57,1.2524414062500001E-5,64,64,62,1363184,16771435,12773,31254,6103,5451,2616,4783,Tag0,unknown
1545011581125,0,76,1.669921875E-5,64,64,62,1363184,16771435,12773,31254,6103,5451,2616,4783,Tag0,unknown
1545011581125,0,55,1.20849609375E-5,64,64,62,1363184,16771435,12773,31254,6103,5451,2616,4783,Tag0,unknown
1545011581125,0,26,5.712890625E-6,64,64,62,1363184,16771435,12773,31254,6103,5451,2616,4783,Tag0,unknown
1545011581126,0,38,8.349609375E-6,64,64,62,1363184,16771435,12773,31254,6103,5451,2616,4783,Tag0,unknown
1545011581126,0,81,1.77978515625E-5,64,64,62,1363184,16771435,12773,31254,6103,5451,2616,4783,Tag0,unknown
1545011581126,0,96,2.109375E-5,64,64,62,1363184,16771435,12773,31254,6103,5451,2616,4783,Tag0,unknown
1545011581126,0,56,1.23046875E-5,64,64,62,1363184,16771435,12773,31254,6103,5451,2616,4783,Tag0,unknown
1545011581141,0,6,1.318359375E-6,64,64,62,1363184,16771435,12773,31254,6103,5451,2616,4783,Tag0,unknown
1545011581141,0,1,2.197265625E-7,64,64,62,1363184,16771435,12773,31254,6103,5451,2616,4783,Tag0,unknown
1545011581141,0,45,9.8876953125E-6,64,64,62,1363184,16771435,12773,31254,6103,5451,2616,4783,Tag0,unknown
1545011581142,0,84,1.8457031250000004E-5,64,64,62,1363184,16771435,12773,31254,6103,5451,2616,4783,Tag0,unknown
1545011581142,0,72,1.58203125E-5,64,64,62,1363184,16771435,12773,31254,6103,5451,2616,4783,Tag0,unknown
1545011581142,0,28,6.15234375E-6,64,64,62,1363184,16771435,12773,31254,6103,5451,2616,4783,Tag0,unknown
1545011581163,0,9,1.9775390625E-6,64,64,62,1363184,16771435,12773,31254,6103,5451,2616,4783,Tag0,unknown
1545011581164,0,45,9.8876953125E-6,64,64,62,1363184,16771435,12773,31254,6103,5451,2616,4783,Tag0,unknown
1545011581164,0,84,1.8457031250000004E-5,64,64,62,1363184,16771435,12773,31254,6103,5451,2616,4783,Tag0,unknown
1545011581164,0,59,1.29638671875E-5,64,64,62,1363184,16771435,12773,31254,6103,5451,2616,4783,Tag0,unknown
1545011581164,0,5,1.0986328125E-6,64,64,62,1363184,16771435,12773,31254,6103,5451,2616,4783,Tag0,unknown
1545011581164,0,-276,-6.064453125E-5,64,64,62,1363184,16771435,12773,31254,6103,5451,2616,4783,Tag0,unknown
1545011581165,0,-259,-5.69091796875E-5,64,64,62,1363184,16771435,12773,31254,6103,5451,2616,4783,Tag0,unknown
1545011581165,0,24,5.2734375E-6,64,64,62,1363184,16771435,12773,31254,6103,5451,2616,4783,Tag0,unknown
1545011581165,0,24,5.2734375E-6,64,64,62,1363184,16771435,12773,31254,6103,5451,2616,4783,Tag0,unknown
1545011581165,0,13,2.8564453125E-6,64,64,62,1363184,16771435,12773,31254,6103,5451,2616,4783,Tag0,unknown
1545011581165,0,24,5.2734375E-6,64,64,62,1363184,16771435,12773,31254,6103,5451,2616,4783,Tag0,unknown
1545011581167,0,64,1.40625E-5,64,64,62,1363184,16771435,12773,31254,6103,5451,2616,4783,Tag0,unknown
1545011581167,0,97,2.13134765625E-5,64,64,62,1363184,16771435,12773,31254,6103,5451,2616,4783,Tag0,unknown
1545011581176,0,74,1.6259765625E-5,64,64,62,1363184,16771435,12773,31254,6103,5451,2616,4783,Tag0,unknown
1545011581176,0,23,5.0537109375E-6,64,64,62,1363184,16771435,12773,31254,6103,5451,2616,4783,Tag0,unknown
1545011581176,0,16,3.515625E-6,64,64,62,1363184,16771435,12773,31254,6103,5451,2616,4783,Tag0,unknown
1545011581177,0,69,1.51611328125E-5,64,64,62,1363184,16771435,12773,31254,6103,5451,2616,4783,Tag0,unknown
1545011581177,0,-127,-2.79052734375E-5,64,64,62,1363184,16771435,12773,31254,6103,5451,2616,4783,Tag0,unknown
1545011581177,0,122,2.6806640625E-5,64,64,62,1363184,16771435,12773,31254,6103,5451,2616,4783,Tag0,unknown
1545011581191,0,61,1.34033203125E-5,64,64,62,1363184,16771435,12773,31254,6103,5451,2616,4783,Tag0,unknown
1545011581191,0,4,8.7890625E-7,64,64,62,1363184,16771435,12773,31254,6103,5451,2616,4783,Tag0,unknown
1545011581195,0,0,0.0,64,64,62,1363184,16771435,12773,31254,6103,5451,2616,4783,Tag0,unknown
1545011581195,0,41,9.008789062499999E-6,64,64,62,1363184,16771435,12773,31254,6103,5451,2616,4783,Tag0,unknown
1545011581196,0,59,1.29638671875E-5,64,64,62,1363184,16771435,12773,31254,6103,5451,2616,4783,Tag0,unknown
1545011581196,0,34,7.4707031250000005E-6,64,64,62,1363184,16771435,12773,31254,6103,5451,2616,4783,Tag0,unknown
1545011581196,0,0,0.0,64,64,62,1363184,16771435,12773,31254,6103,5451,2616,4783,Tag0,unknown
1545011581196,0,20,4.39453125E-6,64,64,62,1363184,16771435,12773,31254,6103,5451,2616,4783,Tag0,unknown
1545011581196,0,67,1.4721679687500002E-5,64,64,62,1363184,16771435,12773,31254,6103,5451,2616,4783,Tag0,unknown
1545011581208,0,71,1.56005859375E-5,64,64,62,1363184,16771435,12773,31254,6103,5451,2616,4783,Tag0,unknown
1545011581209,0,27,5.9326171875000005E-6,64,64,62,1363184,16771435,12773,31254,6103,5451,2616,4783,Tag0,unknown
1545011581209,0,-261,-5.73486328125E-5,64,64,62,1363184,16771435,12773,31254,6103,5451,2616,4783,Tag0,unknown
1545011581209,0,11,2.4169921875E-6,64,64,62,1363184,16771435,12773,31254,6103,5451,2616,4783,Tag0,unknown
1545011581209,0,67,1.4721679687500002E-5,64,64,62,1363184,16771435,12773,31254,6103,5451,2616,4783,Tag0,unknown
1545011581210,0,92,2.021484375E-5,64,64,62,1363184,16771435,12773,31254,6103,5451,2616,4783,Tag0,unknown
1545011581210,0,68,1.4941406250000001E-5,64,64,62,1363184,16771435,12773,31254,6103,5451,2616,4783,Tag0,unknown
1545011581227,0,27,5.9326171875000005E-6,64,64,62,1363184,16771435,12773,31254,6103,5451,2616,4783,Tag0,unknown
1545011581227,0,25,5.4931640625E-6,64,64,62,1363184,16771435,12773,31254,6103,5451,2616,4783,Tag0,unknown
1545011581227,0,67,1.4721679687500002E-5,64,64,62,1363184,16771435,12773,31254,6103,5451,2616,4783,Tag0,unknown
1545011581228,0,91,1.99951171875E-5,64,64,62,1363184,16771435,12773,31254,6103,5451,2616,4783,Tag0,unknown
1545011581228,0,56,1.23046875E-5,64,64,62,1363184,16771435,12773,31254,6103,5451,2616,4783,Tag0,unknown
1545011581228,0,-259,-5.69091796875E-5,64,64,62,1363184,16771435,12773,31254,6103,5451,2616,4783,Tag0,unknown
1545011581228,0,-285,-6.26220703125E-5,64,64,62,1363184,16771435,12773,31254,6103,5451,2616,4783,Tag0,unknown
1545011581241,0,3,6.591796875E-7,64,64,62,1363184,16771435,12773,31254,6103,5451,2616,4783,Tag0,unknown
1545011581241,0,51,1.1206054687499999E-5,64,64,62,1363184,16771435,12773,31254,6103,5451,2616,4783,Tag0,unknown
1545011581241,0,38,8.349609375E-6,64,64,62,1363184,16771435,12773,31254,6103,5451,2616,4783,Tag0,unknown
1545011581241,0,-282,-6.1962890625E-5,64,64,62,1363184,16771435,12773,31254,6103,5451,2616,4783,Tag0,unknown
1545011581242,0,-315,-6.92138671875E-5,64,64,62,1363184,16771435,12773,31254,6103,5451,2616,4783,Tag0,unknown
1545011581242,0,-262,-5.7568359375E-5,64,64,62,1363184,16771435,12773,31254,6103,5451,2616,4783,Tag0,unknown
1545011581242,0,64,1.40625E-5,64,64,62,1363184,16771435,12773,31254,6103,5451,2616,4783,Tag0,unknown
1545011581242,0,71,1.56005859375E-5,64,64,62,1363184,16771435,12773,31254,6103,5451,2616,4783,Tag0,unknown
1545011581242,0,33,7.2509765625E-6,64,64,62,1363184,16771435,12773,31254,6103,5451,2616,4783,Tag0,unknown
1545011581243,0,3,6.591796875E-7,64,64,62,1363184,16771435,12773,31254,6103,5451,2616,4783,Tag0,unknown
1545011581243,0,19,4.1748046875E-6,64,64,62,1363184,16771435,12773,31254,6103,5451,2616,4783,Tag0,unknown
1545011581263,0,57,1.2524414062500001E-5,64,64,62,1363184,16771435,12773,31254,6103,5451,2616,4783,Tag0,unknown
1545011581264,0,58,1.2744140625E-5,64,64,62,1363184,16771435,12773,31254,6103,5451,2616,4783,Tag0,unknown
1545011581265,0,10,2.197265625E-6,64,64,62,1363184,16771435,12773,31254,6103,5451,2616,4783,Tag0,unknown
1545011581269,0,-279,-6.13037109375E-5,64,64,62,1363184,16771435,12773,31254,6103,5451,2616,4783,Tag0,unknown
1545011581269,0,2,4.39453125E-7,64,64,62,1363184,16771435,12773,31254,6103,5451,2616,4783,Tag0,unknown
1545011581269,0,53,1.1645507812500002E-5,64,64,62,1363184,16771435,12773,31254,6103,5451,2616,4783,Tag0,unknown
1545011581270,0,60,1.318359375E-5,64,64,62,1363184,16771435,12773,31254,6103,5451,2616,4783,Tag0,unknown
1545011581270,0,21,4.614257812500001E-6,64,64,62,1363184,16771435,12773,31254,6103,5451,2616,4783,Tag0,unknown
1545011581270,0,-257,-5.64697265625E-5,64,64,62,1363184,16771435,12773,31254,6103,5451,2616,4783,Tag0,unknown
1545011581270,0,29,6.3720703125E-6,64,64,62,1363184,16771435,12773,31254,6103,5451,2616,4783,Tag0,unknown
1545011581271,0,87,1.91162109375E-5,64,64,62,1363184,16771435,12773,31254,6103,5451,2616,4783,Tag0,unknown
1545011581274,0,100,2.197265625E-5,64,64,62,1363184,16771435,12773,31254,6103,5451,2616,4783,Tag0,unknown
1545011581274,0,66,1.4501953125E-5,64,64,62,1363184,16771435,12773,31254,6103,5451,2616,4783,Tag0,unknown
1545011581275,0,25,5.4931640625E-6,64,64,62,1363184,16771435,12773,31254,6103,5451,2616,4783,Tag0,unknown
1545011581275,0,20,4.39453125E-6,64,64,62,1363184,16771435,12773,31254,6103,5451,2616,4783,Tag0,unknown
1545011581275,0,56,1.23046875E-5,64,64,62,1363184,16771435,12773,31254,6103,5451,2616,4783,Tag0,unknown
1545011581275,0,97,2.13134765625E-5,64,64,62,1363184,16771435,12773,31254,6103,5451,2616,4783,Tag0,unknown
1545011581292,0,81,1.77978515625E-5,64,64,62,1363184,16771435,12773,31254,6103,5451,2616,4783,Tag0,unknown
1545011581292,0,50,1.0986328125E-5,64,64,62,1363184,16771435,12773,31254,6103,5451,2616,4783,Tag0,unknown
1545011581293,0,55,1.20849609375E-5,64,64,62,1363184,16771435,12773,31254,6103,5451,2616,4783,Tag0,unknown
1545011581294,0,97,2.13134765625E-5,64,64,62,1363184,16771435,12773,31254,6103,5451,2616,4783,Tag0,unknown
1545011581294,0,109,2.39501953125E-5,64,64,62,1363184,16771435,12773,31254,6103,5451,2616,4783,Tag0,unknown
1545011581294,0,67,1.4721679687500002E-5,64,64,62,1363184,16771435,12773,31254,6103,5451,2616,4783,Tag0,unknown
1545011581295,0,13,2.8564453125E-6,64,64,62,1363184,16771435,12773,31254,6103,5451,2616,4783,Tag0,unknown
1545011581295,0,0,0.0,64,64,62,1363184,16771435,12773,31254,6103,5451,2616,4783,Tag0,unknown
1545011581298,0,44,9.66796875E-6,64,64,62,1363184,16771435,12773,31254,6103,5451,2616,4783,Tag0,unknown
1545011581309,0,93,2.04345703125E-5,64,64,62,1363184,16771435,12773,31254,6103,5451,2616,4783,Tag0,unknown
1545011581309,0,81,1.77978515625E-5,64,64,62,1363184,16771435,12773,31254,6103,5451,2616,4783,Tag0,unknown
1545011581310,0,33,7.2509765625E-6,64,64,62,1363184,16771435,12773,31254,6103,5451,2616,4783,Tag0,unknown
1545011581310,0,11,2.4169921875E-6,64,64,62,1363184,16771435,12773,31254,6103,5451,2616,4783,Tag0,unknown
1545011581310,0,44,9.66796875E-6,64,64,62,1363184,16771435,12773,31254,6103,5451,2616,4783,Tag0,unknown
1545011581310,0,86,1.8896484375000003E-5,64,64,62,1363184,16771435,12773,31254,6103,5451,2616,4783,Tag0,unknown
1545011581311,0,75,1.64794921875E-5,64,64,62,1363184,16771435,12773,31254,6103,5451,2616,4783,Tag0,unknown
1545011581311,0,27,5.9326171875000005E-6,64,64,62,1363184,16771435,12773,31254,6103,5451,2616,4783,Tag0,unknown
1545011581312,0,11,2.4169921875E-6,64,64,62,1363184,16771435,12773,31254,6103,5451,2616,4783,Tag0,unknown
1545011581325,0,56,1.23046875E-5,64,64,62,1363184,16771435,12773,31254,6103,5451,2616,4783,Tag0,unknown
1545011581325,0,108,2.3730468750000002E-5,64,64,62,1363184,16771435,12773,31254,6103,5451,2616,4783,Tag0,unknown
1545011581325,0,92,2.021484375E-5,64,64,62,1363184,16771435,12773,31254,6103,5451,2616,4783,Tag0,unknown
1545011581326,0,32,7.03125E-6,64,64,62,1363184,16771435,12773,31254,6103,5451,2616,4783,Tag0,unknown
1545011581326,0,5,1.0986328125E-6,64,64,62,1363184,16771435,12773,31254,6103,5451,2616,4783,Tag0,unknown
1545011581326,0,53,1.1645507812500002E-5,64,64,62,1363184,16771435,12773,31254,6103,5451,2616,4783,Tag0,unknown
1545011581329,0,117,2.5708007812499998E-5,64,64,62,1363184,16771435,12773,31254,6103,5451,2616,4783,Tag0,unknown
1545011581329,0,105,2.30712890625E-5,64,64,62,1363184,16771435,12773,31254,6103,5451,2616,4783,Tag0,unknown
1545011581341,0,23,5.0537109375E-6,64,64,62,1363184,16771435,12773,31254,6103,5451,2616,4783,Tag0,unknown
1545011581342,0,-297,-6.525878906250001E-5,64,64,62,1363184,16771435,12773,31254,6103,5451,2616,4783,Tag0,unknown
1545011581342,0,-290,-6.3720703125E-5,64,64,62,1363184,16771435,12773,31254,6103,5451,2616,4783,Tag0,unknown
1545011581342,0,40,8.7890625E-6,64,64,62,1363184,16771435,12773,31254,6103,5451,2616,4783,Tag0,unknown
1545011581342,0,101,2.2192382812500002E-5,64,64,62,1363184,16771435,12773,31254,6103,5451,2616,4783,Tag0,unknown
1545011581342,0,84,1.8457031250000004E-5,64,64,62,1363184,16771435,12773,31254,6103,5451,2616,4783,Tag0,unknown
1545011581343,0,18,3.955078125E-6,64,64,62,1363184,16771435,12773,31254,6103,5451,2616,4783,Tag0,unknown
1545011581357,0,7,1.5380859375E-6,64,64,62,1363184,16771435,12773,31254,6103,5451,2616,4783,Tag0,unknown
1545011581357,0,81,1.77978515625E-5,64,64,62,1363184,16771435,12773,31254,6103,5451,2616,4783,Tag0,unknown
1545011581358,0,-120,-2.63671875E-5,64,64,62,1363184,16771435,12773,31254,6103,5451,2616,4783,Tag0,unknown
1545011581358,0,116,2.548828125E-5,64,64,62,1363184,16771435,12773,31254,6103,5451,2616,4783,Tag0,unknown
1545011581358,0,58,1.2744140625E-5,64,64,62,1363184,16771435,12773,31254,6103,5451,2616,4783,Tag0,unknown
1545011581359,0,43,9.448242187500001E-6,64,64,62,1363184,16771435,12773,31254,6103,5451,2616,4783,Tag0,unknown
1545011581361,0,88,1.93359375E-5,64,64,62,1363184,16771435,12773,31254,6103,5451,2616,4783,Tag0,unknown
1545011581362,0,103,2.26318359375E-5,64,64,62,1363184,16771435,12773,31254,6103,5451,2616,4783,Tag0,unknown
1545011581362,0,54,1.1865234375000001E-5,64,64,62,1363184,16771435,12773,31254,6103,5451,2616,4783,Tag0,unknown
1545011581362,0,-259,-5.69091796875E-5,64,64,62,1363184,16771435,12773,31254,6103,5451,2616,4783,Tag0,unknown
1545011581376,0,-258,-5.6689453125000004E-5,64,64,62,1363184,16771435,12773,31254,6103,5451,2616,4783,Tag0,unknown
1545011581377,0,65,1.42822265625E-5,64,64,62,1363184,16771435,12773,31254,6103,5451,2616,4783,Tag0,unknown
1545011581377,0,113,2.48291015625E-5,64,64,62,1363184,16771435,12773,31254,6103,5451,2616,4783,Tag0,unknown
1545011581377,0,89,1.95556640625E-5,64,64,62,1363184,16771435,12773,31254,6103,5451,2616,4783,Tag0,unknown
1545011581377,0,38,8.349609375E-6,64,64,62,1363184,16771435,12773,31254,6103,5451,2616,4783,Tag0,unknown
1545011581377,0,21,4.614257812500001E-6,64,64,62,1363184,16771435,12773,31254,6103,5451,2616,4783,Tag0,unknown
1545011581378,0,57,1.2524414062500001E-5,64,64,62,1363184,16771435,12773,31254,6103,5451,2616,4783,Tag0,unknown
1545011581379,0,97,2.13134765625E-5,64,64,62,1363184,16771435,12773,31254,6103,5451,2616,4783,Tag0,unknown
1545011581379,0,82,1.8017578124999998E-5,64,64,62,1363184,16771435,12773,31254,6103,5451,2616,4783,Tag0,unknown
1545011581390,0,41,9.008789062499999E-6,64,64,62,1363184,16771435,12773,31254,6103,5451,2616,4783,Tag0,unknown
1545011581390,0,38,8.349609375E-6,64,64,62,1363184,16771435,12773,31254,6103,5451,2616,4783,Tag0,unknown
1545011581390,0,81,1.77978515625E-5,64,64,62,1363184,16771435,12773,31254,6103,5451,2616,4783,Tag0,unknown
1545011581390,0,113,2.48291015625E-5,64,64,62,1363184,16771435,12773,31254,6103,5451,2616,4783,Tag0,unknown
1545011581393,0,87,1.91162109375E-5,64,64,62,1363184,16771435,12773,31254,6103,5451,2616,4783,Tag0,unknown
1545011581393,0,28,6.15234375E-6,64,64,62,1363184,16771435,12773,31254,6103,5451,2616,4783,Tag0,unknown
1545011581394,0,10,2.197265625E-6,64,64,62,1363184,16771435,12773,31254,6103,5451,2616,4783,Tag0,unknown
1545011581394,0,57,1.2524414062500001E-5,64,64,62,1363184,16771435,12773,31254,6103,5451,2616,4783,Tag0,unknown
1545011581410,0,114,2.5048828125000003E-5,64,64,62,1363184,16771435,12773,31254,6103,5451,2616,4783,Tag0,unknown
1545011581410,0,107,2.35107421875E-5,64,64,62,1363184,16771435,12773,31254,6103,5451,2616,4783,Tag0,unknown
1545011581411,0,48,1.0546875E-5,64,64,62,1363184,16771435,12773,31254,6103,5451,2616,4783,Tag0,unknown
1545011581411,0,7,1.5380859375E-6,64,64,62,1363184,16771435,12773,31254,6103,5451,2616,4783,Tag0,unknown
1545011581411,0,40,8.7890625E-6,64,64,62,1363184,16771435,12773,31254,6103,5451,2616,4783,Tag0,unknown
1545011581411,0,91,1.99951171875E-5,64,64,62,1363184,16771435,12773,31254,6103,5451,2616,4783,Tag0,unknown
1545011581412,0,87,1.91162109375E-5,64,64,62,1363184,16771435,12773,31254,6103,5451,2616,4783,Tag0,unknown
1545011581412,0,42,9.228515625000002E-6,64,64,62,1363184,16771435,12773,31254,6103,5451,2616,4783,Tag0,unknown
1545011581412,0,9,1.9775390625E-6,64,64,62,1363184,16771435,12773,31254,6103,5451,2616,4783,Tag0,unknown
1545011581423,0,27,5.9326171875000005E-6,64,64,62,1363184,16771435,12773,31254,6103,5451,2616,4783,Tag0,unknown
1545011581423,0,76,1.669921875E-5,64,64,62,1363184,16771435,12773,31254,6103,5451,2616,4783,Tag0,unknown
1545011581424,0,83,1.82373046875E-5,64,64,62,1363184,16771435,12773,31254,6103,5451,2616,4783,Tag0,unknown
1545011581426,0,45,9.8876953125E-6,64,64,62,1363184,16771435,12773,31254,6103,5451,2616,4783,Tag0,unknown
1545011581427,0,7,1.5380859375E-6,64,64,62,1363184,16771435,12773,31254,6103,5451,2616,4783,Tag0,unknown
1545011581427,0,19,4.1748046875E-6,64,64,62,1363184,16771435,12773,31254,6103,5451,2616,4783,Tag0,unknown
1545011581427,0,68,1.4941406250000001E-5,64,64,62,1363184,16771435,12773,31254,6103,5451,2616,4783,Tag0,unknown
1545011581441,0,83,1.82373046875E-5,64,64,62,1363184,16771435,12773,31254,6103,5451,2616,4783,Tag0,unknown
1545011581441,0,57,1.2524414062500001E-5,64,64,62,1363184,16771435,12773,31254,6103,5451,2616,4783,Tag0,unknown
1545011581441,0,36,7.91015625E-6,64,64,62,1363184,16771435,12773,31254,6103,5451,2616,4783,Tag0,unknown
1545011581442,0,45,9.8876953125E-6,64,64,62,1363184,16771435,12773,31254,6103,5451,2616,4783,Tag0,unknown
1545011581442,0,90,1.9775390625E-5,64,64,62,1363184,16771435,12773,31254,6103,5451,2616,4783,Tag0,unknown
1545011581442,0,107,2.35107421875E-5,64,64,62,1363184,16771435,12773,31254,6103,5451,2616,4783,Tag0,unknown
1545011581442,0,74,1.6259765625E-5,64,64,62,1363184,16771435,12773,31254,6103,5451,2616,4783,Tag0,unknown
1545011581443,0,41,9.008789062499999E-6,64,64,62,1363184,16771435,12773,31254,6103,5451,2616,4783,Tag0,unknown
1545011581443,0,57,1.2524414062500001E-5,64,64,62,1363184,16771435,12773,31254,6103,5451,2616,4783,Tag0,unknown
1545011581443,0,113,2.48291015625E-5,64,64,62,1363184,16771435,12773,31254,6103,5451,2616,4783,Tag0,unknown
1545011581462,0,-120,-2.63671875E-5,64,64,62,1363184,16771435,12773,31254,6103,5451,2616,4783,Tag0,unknown
1545011581463,0,87,1.91162109375E-5,64,64,62,1363184,16771435,12773,31254,6103,5451,2616,4783,Tag0,unknown
1545011581468,0,26,5.712890625E-6,64,64,62,1363184,16771435,12773,31254,6103,5451,2616,4783,Tag0,unknown
1545011581469,0,24,5.2734375E-6,64,64,62,1363184,16771435,12773,31254,6103,5451,2616,4783,Tag0,unknown
1545011581469,0,75,1.64794921875E-5,64,64,62,1363184,16771435,12773,31254,6103,5451,2616,4783,Tag0,unknown
1545011581469,0,107,2.35107421875E-5,64,64,62,1363184,16771435,12773,31254,6103,5451,2616,4783,Tag0,unknown
1545011581469,0,80,1.7578125E-5,64,64,62,1363184,16771435,12773,31254,6103,5451,2616,4783,Tag0,unknown
1545011581469,0,26,5.712890625E-6,64,64,62,1363184,16771435,12773,31254,6103,5451,2616,4783,Tag0,unknown
1545011581470,0,16,3.515625E-6,64,64,62,1363184,16771435,12773,31254,6103,5451,2616,4783,Tag0,unknown
1545011581470,0,67,1.4721679687500002E-5,64,64,62,1363184,16771435,12773,31254,6103,5451,2616,4783,Tag0,unknown
1545011581470,0,115,2.52685546875E-5,64,64,62,1363184,16771435,12773,31254,6103,5451,2616,4783,Tag0,unknown
1545011581473,0,96,2.109375E-5,64,64,62,1363184,16771435,12773,31254,6103,5451,2616,4783,Tag0,unknown
1545011581474,0,37,8.1298828125E-6,64,64,62,1363184,16771435,12773,31254,6103,5451,2616,4783,Tag0,unknown
1545011581474,0,17,3.7353515625000003E-6,64,64,62,1363184,16771435,12773,31254,6103,5451,2616,4783,Tag0,unknown
1545011581474,0,56,1.23046875E-5,64,64,62,1363184,16771435,12773,31254,6103,5451,2616,4783,Tag0,unknown
1545011581474,0,109,2.39501953125E-5,64,64,62,1363184,16771435,12773,31254,6103,5451,2616,4783,Tag0,unknown
1545011581493,0,101,2.2192382812500002E-5,64,64,62,1363184,16771435,12773,31254,6103,5451,2616,4783,Tag0,unknown
1545011581493,0,42,9.228515625000002E-6,64,64,62,1363184,16771435,12773,31254,6103,5451,2616,4783,Tag0,unknown
1545011581494,0,4,8.7890625E-7,64,64,62,1363184,16771435,12773,31254,6103,5451,2616,4783,Tag0,unknown
1545011581494,0,39,8.5693359375E-6,64,64,62,1363184,16771435,12773,31254,6103,5451,2616,4783,Tag0,unknown
1545011581494,0,109,2.39501953125E-5,64,64,62,1363184,16771435,12773,31254,6103,5451,2616,4783,Tag0,unknown
1545011581495,0,118,2.5927734375E-5,64,64,62,1363184,16771435,12773,31254,6103,5451,2616,4783,Tag0,unknown
1545011581495,0,54,1.1865234375000001E-5,64,64,62,1363184,16771435,12773,31254,6103,5451,2616,4783,Tag0,unknown
1545011581495,0,-257,-5.64697265625E-5,64,64,62,1363184,16771435,12773,31254,6103,5451,2616,4783,Tag0,unknown
1545011581498,0,22,4.833984375E-6,64,64,62,1363184,16771435,12773,31254,6103,5451,2616,4783,Tag0,unknown
1545011581498,0,83,1.82373046875E-5,64,64,62,1363184,16771435,12773,31254,6103,5451,2616,4783,Tag0,unknown
1545011581498,0,91,1.99951171875E-5,64,64,62,1363184,16771435,12773,31254,6103,5451,2616,4783,Tag0,unknown
1545011581510,0,53,1.1645507812500002E-5,64,64,62,1363184,16771435,12773,31254,6103,5451,2616,4783,Tag0,unknown
1545011581510,0,19,4.1748046875E-6,64,64,62,1363184,16771435,12773,31254,6103,5451,2616,4783,Tag0,unknown
1545011581510,0,28,6.15234375E-6,64,64,62,1363184,16771435,12773,31254,6103,5451,2616,4783,Tag0,unknown
1545011581511,0,72,1.58203125E-5,64,64,62,1363184,16771435,12773,31254,6103,5451,2616,4783,Tag0,unknown
1545011581511,0,92,2.021484375E-5,64,64,62,1363184,16771435,12773,31254,6103,5451,2616,4783,Tag0,unknown
1545011581511,0,72,1.58203125E-5,64,64,62,1363184,16771435,12773,31254,6103,5451,2616,4783,Tag0,unknown
1545011581511,0,38,8.349609375E-6,64,64,62,1363184,16771435,12773,31254,6103,5451,2616,4783,Tag0,unknown
1545011581511,0,33,7.2509765625E-6,64,64,62,1363184,16771435,12773,31254,6103,5451,2616,4783,Tag0,unknown
1545011581524,0,76,1.669921875E-5,64,64,62,1363184,16771435,12773,31254,6103,5451,2616,4783,Tag0,unknown
1545011581524,0,99,2.1752929687500003E-5,64,64,62,1363184,16771435,12773,31254,6103,5451,2616,4783,Tag0,unknown
1545011581524,0,57,1.2524414062500001E-5,64,64,62,1363184,16771435,12773,31254,6103,5451,2616,4783,Tag0,unknown
1545011581525,0,5,1.0986328125E-6,64,64,62,1363184,16771435,12773,31254,6103,5451,2616,4783,Tag0,unknown
1545011581526,0,0,0.0,64,64,62,1363184,16771435,12773,31254,6103,5451,2616,4783,Tag0,unknown
1545011581526,0,43,9.448242187500001E-6,64,64,62,1363184,16771435,12773,31254,6103,5451,2616,4783,Tag0,unknown
1545011581526,0,83,1.82373046875E-5,64,64,62,1363184,16771435,12773,31254,6103,5451,2616,4783,Tag0,unknown
1545011581541,0,69,1.51611328125E-5,64,64,62,1363184,16771435,12773,31254,6103,5451,2616,4783,Tag0,unknown
1545011581541,0,37,8.1298828125E-6,64,64,62,1363184,16771435,12773,31254,6103,5451,2616,4783,Tag0,unknown
1545011581544,0,34,7.4707031250000005E-6,64,64,62,1363184,16771435,12773,31254,6103,5451,2616,4783,Tag0,unknown
1545011581544,0,67,1.4721679687500002E-5,64,64,62,1363184,16771435,12773,31254,6103,5451,2616,4783,Tag0,unknown
1545011581544,0,89,1.95556640625E-5,64,64,62,1363184,16771435,12773,31254,6103,5451,2616,4783,Tag0,unknown
1545011581545,0,60,1.318359375E-5,64,64,62,1363184,16771435,12773,31254,6103,5451,2616,4783,Tag0,unknown
1545011581545,0,26,5.712890625E-6,64,64,62,1363184,16771435,12773,31254,6103,5451,2616,4783,Tag0,unknown
1545011581545,0,35,7.6904296875E-6,64,64,62,1363184,16771435,12773,31254,6103,5451,2616,4783,Tag0,unknown
1545011581556,0,74,1.6259765625E-5,64,64,62,1363184,16771435,12773,31254,6103,5451,2616,4783,Tag0,unknown
1545011581556,0,96,2.109375E-5,64,64,62,1363184,16771435,12773,31254,6103,5451,2616,4783,Tag0,unknown
1545011581557,0,64,1.40625E-5,64,64,62,1363184,16771435,12773,31254,6103,5451,2616,4783,Tag0,unknown
1545011581557,0,21,4.614257812500001E-6,64,64,62,1363184,16771435,12773,31254,6103,5451,2616,4783,Tag0,unknown
1545011581557,0,9,1.9775390625E-6,64,64,62,1363184,16771435,12773,31254,6103,5451,2616,4783,Tag0,unknown
1545011581557,0,40,8.7890625E-6,64,64,62,1363184,16771435,12773,31254,6103,5451,2616,4783,Tag0,unknown
1545011581558,0,60,1.318359375E-5,64,64,62,1363184,16771435,12773,31254,6103,5451,2616,4783,Tag0,unknown
1545011581558,0,35,7.6904296875E-6,64,64,62,1363184,16771435,12773,31254,6103,5451,2616,4783,Tag0,unknown
1545011581577,0,-260,-5.712890625E-5,64,64,62,1363184,16771435,12773,31254,6103,5451,2616,4783,Tag0,unknown
1545011581577,0,-269,-5.9106445312499996E-5,64,64,62,1363184,16771435,12773,31254,6103,5451,2616,4783,Tag0,unknown
1545011581577,0,6,1.318359375E-6,64,64,62,1363184,16771435,12773,31254,6103,5451,2616,4783,Tag0,unknown
1545011581577,0,25,5.4931640625E-6,64,64,62,1363184,16771435,12773,31254,6103,5451,2616,4783,Tag0,unknown
1545011581578,0,18,3.955078125E-6,64,64,62,1363184,16771435,12773,31254,6103,5451,2616,4783,Tag0,unknown
1545011581578,0,-258,-5.6689453125000004E-5,64,64,62,1363184,16771435,12773,31254,6103,5451,2616,4783,Tag0,unknown
1545011581581,0,6,1.318359375E-6,64,64,62,1363184,16771435,12773,31254,6103,5451,2616,4783,Tag0,unknown
1545011581581,0,52,1.142578125E-5,64,64,62,1363184,16771435,12773,31254,6103,5451,2616,4783,Tag0,unknown
1545011581581,0,91,1.99951171875E-5,64,64,62,1363184,16771435,12773,31254,6103,5451,2616,4783,Tag0,unknown
1545011581581,0,72,1.58203125E-5,64,64,62,1363184,16771435,12773,31254,6103,5451,2616,4783,Tag0,unknown
1545011581582,0,22,4.833984375E-6,64,64,62,1363184,16771435,12773,31254,6103,5451,2616,4783,Tag0,unknown
1545011581594,0,10,2.197265625E-6,64,64,62,1363184,16771435,12773,31254,6103,5451,2616,4783,Tag0,unknown
1545011581594,0,58,1.2744140625E-5,64,64,62,1363184,16771435,12773,31254,6103,5451,2616,4783,Tag0,unknown
1545011581594,0,115,2.52685546875E-5,64,64,62,1363184,16771435,12773,31254,6103,5451,2616,4783,Tag0,unknown
1545011581594,0,96,2.109375E-5,64,64,62,1363184,16771435,12773,31254,6103,5451,2616,4783,Tag0,unknown
1545011581595,0,25,5.4931640625E-6,64,64,62,1363184,16771435,12773,31254,6103,5451,2616,4783,Tag0,unknown
1545011581595,0,-261,-5.73486328125E-5,64,64,62,1363184,16771435,12773,31254,6103,5451,2616,4783,Tag0,unknown
1545011581595,0,12,2.63671875E-6,64,64,62,1363184,16771435,12773,31254,6103,5451,2616,4783,Tag0,unknown
1545011581595,0,48,1.0546875E-5,64,64,62,1363184,16771435,12773,31254,6103,5451,2616,4783,Tag0,unknown
1545011581606,0,51,1.1206054687499999E-5,64,64,62,1363184,16771435,12773,31254,6103,5451,2616,4783,Tag0,unknown
1545011581607,0,27,5.9326171875000005E-6,64,64,62,1363184,16771435,12773,31254,6103,5451,2616,4783,Tag0,unknown
1545011581607,0,12,2.63671875E-6,64,64,62,1363184,16771435,12773,31254,6103,5451,2616,4783,Tag0,unknown
1545011581607,0,33,7.2509765625E-6,64,64,62,1363184,16771435,12773,31254,6103,5451,2616,4783,Tag0,unknown
1545011581611,0,74,1.6259765625E-5,64,64,62,1363184,16771435,12773,31254,6103,5451,2616,4783,Tag0,unknown
1545011581611,0,87,1.91162109375E-5,64,64,62,1363184,16771435,12773,31254,6103,5451,2616,4783,Tag0,unknown
1545011581611,0,54,1.1865234375000001E-5,64,64,62,1363184,16771435,12773,31254,6103,5451,2616,4783,Tag0,unknown
1545011581623,0,16,3.515625E-6,64,64,62,1363184,16771435,12773,31254,6103,5451,2616,4783,Tag0,unknown
1545011581624,0,12,2.63671875E-6,64,64,62,1363184,16771435,12773,31254,6103,5451,2616,4783,Tag0,unknown
1545011581624,0,54,1.1865234375000001E-5,64,64,62,1363184,16771435,12773,31254,6103,5451,2616,4783,Tag0,unknown
1545011581624,0,83,1.82373046875E-5,64,64,62,1363184,16771435,12773,31254,6103,5451,2616,4783,Tag0,unknown
1545011581642,0,52,1.142578125E-5,64,64,62,1363184,16771435,12773,31254,6103,5451,2616,4783,Tag0,unknown
1545011581642,0,1,2.197265625E-7,64,64,62,1363184,16771435,12773,31254,6103,5451,2616,4783,Tag0,unknown
1545011581642,0,-257,-5.64697265625E-5,64,64,62,1363184,16771435,12773,31254,6103,5451,2616,4783,Tag0,unknown
1545011581642,0,53,1.1645507812500002E-5,64,64,62,1363184,16771435,12773,31254,6103,5451,2616,4783,Tag0,unknown
1545011581642,0,97,2.13134765625E-5,64,64,62,1363184,16771435,12773,31254,6103,5451,2616,4783,Tag0,unknown
1545011581643,0,71,1.56005859375E-5,64,64,62,1363184,16771435,12773,31254,6103,5451,2616,4783,Tag0,unknown
1545011581643,0,8,1.7578125E-6,64,64,62,1363184,16771435,12773,31254,6103,5451,2616,4783,Tag0,unknown
1545011581643,0,-268,-5.8886718750000006E-5,64,64,62,1363184,16771435,12773,31254,6103,5451,2616,4783,Tag0,unknown
1545011581643,0,25,5.4931640625E-6,64,64,62,1363184,16771435,12773,31254,6103,5451,2616,4783,Tag0,unknown
1545011581647,0,59,1.29638671875E-5,64,64,62,1363184,16771435,12773,31254,6103,5451,2616,4783,Tag0,unknown
1545011581647,0,36,7.91015625E-6,64,64,62,1363184,16771435,12773,31254,6103,5451,2616,4783,Tag0,unknown
1545011581647,0,-263,-5.7788085937500005E-5,64,64,62,1363184,16771435,12773,31254,6103,5451,2616,4783,Tag0,unknown
1545011581647,0,-280,-6.15234375E-5,64,64,62,1363184,16771435,12773,31254,6103,5451,2616,4783,Tag0,unknown
1545011581648,0,7,1.5380859375E-6,64,64,62,1363184,16771435,12773,31254,6103,5451,2616,4783,Tag0,unknown
1545011581658,0,54,1.1865234375000001E-5,64,64,62,1363184,16771435,12773,31254,6103,5451,2616,4783,Tag0,unknown
1545011581659,0,55,1.20849609375E-5,64,64,62,1363184,16771435,12773,31254,6103,5451,2616,4783,Tag0,unknown
1545011581659,0,17,3.7353515625000003E-6,64,64,62,1363184,16771435,12773,31254,6103,5451,2616,4783,Tag0,unknown
1545011581660,0,-263,-5.7788085937500005E-5,64,64,62,1363184,16771435,12773,31254,6103,5451,2616,4783,Tag0,unknown
1545011581660,0,8,1.7578125E-6,64,64,62,1363184,16771435,12773,31254,6103,5451,2616,4783,Tag0,unknown
1545011581660,0,45,9.8876953125E-6,64,64,62,1363184,16771435,12773,31254,6103,5451,2616,4783,Tag0,unknown
1545011581660,0,44,9.66796875E-6,64,64,62,1363184,16771435,12773,31254,6103,5451,2616,4783,Tag0,unknown
1545011581660,0,9,1.9775390625E-6,64,64,62,1363184,16771435,12773,31254,6103,5451,2616,4783,Tag0,unknown
1545011581660,0,-275,-6.04248046875E-5,64,64,62,1363184,16771435,12773,31254,6103,5451,2616,4783,Tag0,unknown
1545011581675,0,5,1.0986328125E-6,64,64,62,1363184,16771435,12773,31254,6103,5451,2616,4783,Tag0,unknown
1545011581675,0,72,1.58203125E-5,64,64,62,1363184,16771435,12773,31254,6103,5451,2616,4783,Tag0,unknown
1545011581675,0,99,2.1752929687500003E-5,64,64,62,1363184,16771435,12773,31254,6103,5451,2616,4783,Tag0,unknown
1545011581676,0,64,1.40625E-5,64,64,62,1363184,16771435,12773,31254,6103,5451,2616,4783,Tag0,unknown
1545011581679,0,24,5.2734375E-6,64,64,62,1363184,16771435,12773,31254,6103,5451,2616,4783,Tag0,unknown
1545011581680,0,27,5.9326171875000005E-6,64,64,62,1363184,16771435,12773,31254,6103,5451,2616,4783,Tag0,unknown
1545011581680,0,64,1.40625E-5,64,64,62,1363184,16771435,12773,31254,6103,5451,2616,4783,Tag0,unknown
1545011581680,0,75,1.64794921875E-5,64,64,62,1363184,16771435,12773,31254,6103,5451,2616,4783,Tag0,unknown
1545011581689,0,55,1.20849609375E-5,64,64,62,1363184,16771435,12773,31254,6103,5451,2616,4783,Tag0,unknown
1545011581690,0,32,7.03125E-6,64,64,62,1363184,16771435,12773,31254,6103,5451,2616,4783,Tag0,unknown
1545011581690,0,42,9.228515625000002E-6,64,64,62,1363184,16771435,12773,31254,6103,5451,2616,4783,Tag0,unknown
1545011581690,0,87,1.91162109375E-5,64,64,62,1363184,16771435,12773,31254,6103,5451,2616,4783,Tag0,unknown
1545011581691,0,104,2.28515625E-5,64,64,62,1363184,16771435,12773,31254,6103,5451,2616,4783,Tag0,unknown
1545011581691,0,66,1.4501953125E-5,64,64,62,1363184,16771435,12773,31254,6103,5451,2616,4783,Tag0,unknown
1545011581691,0,10,2.197265625E-6,64,64,62,1363184,16771435,12773,31254,6103,5451,2616,4783,Tag0,unknown
1545011581691,0,7,1.5380859375E-6,64,64,62,1363184,16771435,12773,31254,6103,5451,2616,4783,Tag0,unknown
1545011581707,0,67,1.4721679687500002E-5,64,64,62,1363184,16771435,12773,31254,6103,5451,2616,4783,Tag0,unknown
1545011581708,0,104,2.28515625E-5,64,64,62,1363184,16771435,12773,31254,6103,5451,2616,4783,Tag0,unknown
1545011581708,0,82,1.8017578124999998E-5,64,64,62,1363184,16771435,12773,31254,6103,5451,2616,4783,Tag0,unknown
1545011581709,0,43,9.448242187500001E-6,64,64,62,1363184,16771435,12773,31254,6103,5451,2616,4783,Tag0,unknown
1545011581709,0,42,9.228515625000002E-6,64,64,62,1363184,16771435,12773,31254,6103,5451,2616,4783,Tag0,unknown
1545011581712,0,73,1.6040039062500002E-5,64,64,62,1363184,16771435,12773,31254,6103,5451,2616,4783,Tag0,unknown
1545011581713,0,83,1.82373046875E-5,64,64,62,1363184,16771435,12773,31254,6103,5451,2616,4783,Tag0,unknown
