timestampMs,poorSignal,eegRawValue,eegRawValueVolts,attention,meditation,blinkStrength,delta,theta,alphaLow,alphaHigh,betaLow,betaHigh,gammaLow,gammaMid,tagEvent,location
1545003790010,0,-187,-4.10888671875E-5,56,64,55,444418,16761,9586,14040,16756288,11131,4414,730,Tag0,unknown
1545003790011,0,-177,-3.8891601562500006E-5,56,64,55,444418,16761,9586,14040,16756288,11131,4414,730,Tag0,unknown
1545003790011,0,-172,-3.7792968750000005E-5,56,64,55,444418,16761,9586,14040,16756288,11131,4414,730,Tag0,unknown
1545003790011,0,-180,-3.955078125E-5,56,64,55,444418,16761,9586,14040,16756288,11131,4414,730,Tag0,unknown
1545003790011,0,-177,-3.8891601562500006E-5,56,64,55,444418,16761,9586,14040,16756288,11131,4414,730,Tag0,unknown
1545003790011,0,-154,-3.3837890625E-5,56,64,55,444418,16761,9586,14040,16756288,11131,4414,730,Tag0,unknown
1545003790011,0,-134,-2.9443359375000003E-5,56,64,55,444418,16761,9586,14040,16756288,11131,4414,730,Tag0,unknown
1545003790011,0,-133,-2.92236328125E-5,56,64,55,444418,16761,9586,14040,16756288,11131,4414,730,Tag0,unknown
1545003790012,0,-137,-3.0102539062499998E-5,56,64,55,444418,16761,9586,14040,16756288,11131,4414,730,Tag0,unknown
1545003790012,0,-135,-2.96630859375E-5,56,64,55,444418,16761,9586,14040,16756288,11131,4414,730,Tag0,unknown
1545003790012,0,-145,-3.18603515625E-5,56,64,55,444418,16761,9586,14040,16756288,11131,4414,730,Tag0,unknown
1545003790012,0,-170,-3.7353515625E-5,56,64,55,444418,16761,9586,14040,16756288,11131,4414,730,Tag0,unknown
1545003790012,0,-177,-3.8891601562500006E-5,56,64,55,444418,16761,9586,14040,16756288,11131,4414,730,Tag0,unknown
1545003790012,0,-170,-3.7353515625E-5,56,64,55,444418,16761,9586,14040,16756288,11131,4414,730,Tag0,unknown
1545003790012,0,-165,-3.62548828125E-5,56,64,55,444418,16761,9586,14040,16756288,11131,4414,730,Tag0,unknown
1545003790012,0,-151,-3.31787109375E-5,56,64,55,444418,16761,9586,14040,16756288,11131,4414,730,Tag0,unknown
1545003790013,0,-136,-2.9882812500000002E-5,56,64,55,444418,16761,9586,14040,16756288,11131,4414,730,Tag0,unknown
1545003790013,0,-382,-8.3935546875E-5,56,64,55,444418,16761,9586,14040,16756288,11131,4414,730,Tag0,unknown
1545003790013,0,-132,-2.900390625E-5,56,64,55,444418,16761,9586,14040,16756288,11131,4414,730,Tag0,unknown
1545003790013,0,-145,-3.18603515625E-5,56,64,55,444418,16761,9586,14040,16756288,11131,4414,730,Tag0,unknown
1545003790013,0,-140,-3.076171875E-5,56,64,55,444418,16761,9586,14040,16756288,11131,4414,730,Tag0,unknown
1545003790013,0,-377,-8.28369140625E-5,56,64,55,444418,16761,9586,14040,16756288,11131,4414,730,Tag0,unknown
1545003790013,0,-372,-8.173828125E-5,56,64,55,444418,16761,9586,14040,16756288,11131,4414,730,Tag0,unknown
1545003790013,0,-371,-8.151855468750001E-5,56,64,55,444418,16761,9586,14040,16756288,11131,4414,730,Tag0,unknown
1545003790013,0,-362,-7.954101562500001E-5,56,64,55,444418,16761,9586,14040,16756288,11131,4414,730,Tag0,unknown
1545003790014,0,-355,-7.80029296875E-5,56,64,55,444418,16761,9586,14040,16756288,11131,4414,730,Tag0,unknown
1545003790016,0,-358,-7.8662109375E-5,56,64,55,444418,16761,9586,14040,16756288,11131,4414,730,Tag0,unknown
1545003790016,0,-373,-8.19580078125E-5,56,64,55,444418,16761,9586,14040,16756288,11131,4414,730,Tag0,unknown
1545003790032,0,-380,-8.349609375E-5,56,64,55,444418,16761,9586,14040,16756288,11131,4414,730,Tag0,unknown
1545003790032,0,-371,-8.151855468750001E-5,56,64,55,444418,16761,9586,14040,16756288,11131,4414,730,Tag0,unknown
1545003790032,0,-350,-7.6904296875E-5,56,64,55,444418,16761,9586,14040,16756288,11131,4414,730,Tag0,unknown
1545003790059,0,-334,-7.338867187500001E-5,56,64,55,444418,16761,9586,14040,16756288,11131,4414,730,Tag0,unknown
1545003790059,0,-317,-6.96533203125E-5,56,64,55,444418,16761,9586,14040,16756288,11131,4414,730,Tag0,unknown
1545003790059,0,-299,-6.56982421875E-5,56,64,55,444418,16761,9586,14040,16756288,11131,4414,730,Tag0,unknown
1545003790065,0,-282,-6.1962890625E-5,56,64,55,444418,16761,9586,14040,16756288,11131,4414,730,Tag0,unknown
1545003790066,0,-270,-5.9326171875E-5,56,64,55,444418,16761,9586,14040,16756288,11131,4414,730,Tag0,unknown
1545003790066,0,-269,-5.9106445312499996E-5,56,64,55,444418,16761,9586,14040,16756288,11131,4414,730,Tag0,unknown
1545003790066,0,-282,-6.1962890625E-5,56,64,55,444418,16761,9586,14040,16756288,11131,4414,730,Tag0,unknown
1545003790066,0,-295,-6.48193359375E-5,56,64,55,444418,16761,9586,14040,16756288,11131,4414,730,Tag0,unknown
1545003790066,0,-305,-6.70166015625E-5,56,64,55,444418,16761,9586,14040,16756288,11131,4414,730,Tag0,unknown
1545003790066,0,-308,-6.767578125E-5,56,64,55,444418,16761,9586,14040,16756288,11131,4414,730,Tag0,unknown
1545003790066,0,-307,-6.74560546875E-5,56,64,55,444418,16761,9586,14040,16756288,11131,4414,730,Tag0,unknown
1545003790067,0,-311,-6.833496093750001E-5,56,64,55,444418,16761,9586,14040,16756288,11131,4414,730,Tag0,unknown
1545003790067,0,-316,-6.943359375000001E-5,56,64,55,444418,16761,9586,14040,16756288,11131,4414,730,Tag0,unknown
1545003790067,0,-313,-6.87744140625E-5,56,64,55,444418,16761,9586,14040,16756288,11131,4414,730,Tag0,unknown
1545003790067,0,-306,-6.723632812500001E-5,56,64,55,444418,16761,9586,14040,16756288,11131,4414,730,Tag0,unknown
1545003790067,0,-321,-7.053222656250001E-5,56,64,55,444418,16761,9586,14040,16756288,11131,4414,730,Tag0,unknown
1545003790067,0,-339,-7.448730468750001E-5,56,64,55,444418,16761,9586,14040,16756288,11131,4414,730,Tag0,unknown
1545003790067,0,-346,-7.6025390625E-5,56,64,55,444418,16761,9586,14040,16756288,11131,4414,730,Tag0,unknown
1545003790068,0,-348,-7.646484375E-5,56,64,55,444418,16761,9586,14040,16756288,11131,4414,730,Tag0,unknown
1545003790068,0,-344,-7.558593750000001E-5,56,64,55,444418,16761,9586,14040,16756288,11131,4414,730,Tag0,unknown
1545003790068,0,-353,-7.75634765625E-5,56,64,55,444418,16761,9586,14040,16756288,11131,4414,730,Tag0,unknown
1545003790082,0,-349,-7.668457031250001E-5,56,64,55,444418,16761,9586,14040,16756288,11131,4414,730,Tag0,unknown
1545003790082,0,-348,-7.646484375E-5,56,64,55,444418,16761,9586,14040,16756288,11131,4414,730,Tag0,unknown
1545003790082,0,-348,-7.646484375E-5,56,64,55,444418,16761,9586,14040,16756288,11131,4414,730,Tag0,unknown
1545003790082,0,-345,-7.58056640625E-5,56,64,55,444418,16761,9586,14040,16756288,11131,4414,730,Tag0,unknown
1545003790083,0,-344,-7.558593750000001E-5,56,64,55,444418,16761,9586,14040,16756288,11131,4414,730,Tag0,unknown
1545003790083,0,-332,-7.294921875E-5,56,64,55,444418,16761,9586,14040,16756288,11131,4414,730,Tag0,unknown
1545003790083,0,-316,-6.943359375000001E-5,56,64,55,444418,16761,9586,14040,16756288,11131,4414,730,Tag0,unknown
1545003790083,0,-307,-6.74560546875E-5,56,64,55,444418,16761,9586,14040,16756288,11131,4414,730,Tag0,unknown
1545003790083,0,-315,-6.92138671875E-5,56,64,55,444418,16761,9586,14040,16756288,11131,4414,730,Tag0,unknown
1545003790083,0,-313,-6.87744140625E-5,56,64,55,444418,16761,9586,14040,16756288,11131,4414,730,Tag0,unknown
1545003790119,0,-292,-6.416015625000001E-5,56,64,55,444418,16761,9586,14040,16756288,11131,4414,730,Tag0,unknown
1545003790120,0,-265,-5.82275390625E-5,56,64,55,444418,16761,9586,14040,16756288,11131,4414,730,Tag0,unknown
1545003790120,0,10,2.197265625E-6,56,64,55,444418,16761,9586,14040,16756288,11131,4414,730,Tag0,unknown
1545003790132,0,13,2.8564453125E-6,56,64,55,444418,16761,9586,14040,16756288,11131,4414,730,Tag0,unknown
1545003790132,0,3,6.591796875E-7,56,64,55,444418,16761,9586,14040,16756288,11131,4414,730,Tag0,unknown
1545003790132,0,-264,-5.80078125E-5,56,64,55,444418,16761,9586,14040,16756288,11131,4414,730,Tag0,unknown
1545003790133,0,-265,-5.82275390625E-5,56,64,55,444418,16761,9586,14040,16756288,11131,4414,730,Tag0,unknown
1545003790133,0,-259,-5.69091796875E-5,56,64,55,444418,16761,9586,14040,16756288,11131,4414,730,Tag0,unknown
1545003790133,0,-261,-5.73486328125E-5,56,64,55,444418,16761,9586,14040,16756288,11131,4414,730,Tag0,unknown
1545003790133,0,-264,-5.80078125E-5,56,64,55,444418,16761,9586,14040,16756288,11131,4414,730,Tag0,unknown
1545003790133,0,-277,-6.0864257812500005E-5,56,64,55,444418,16761,9586,14040,16756288,11131,4414,730,Tag0,unknown
1545003790133,0,-296,-6.50390625E-5,56,64,55,444418,16761,9586,14040,16756288,11131,4414,730,Tag0,unknown
1545003790134,0,-299,-6.56982421875E-5,56,64,55,444418,16761,9586,14040,16756288,11131,4414,730,Tag0,unknown
1545003790134,0,-290,-6.3720703125E-5,56,64,55,444418,16761,9586,14040,16756288,11131,4414,730,Tag0,unknown
1545003790134,0,-284,-6.240234375E-5,56,64,55,444418,16761,9586,14040,16756288,11131,4414,730,Tag0,unknown
1545003790134,0,-290,-6.3720703125E-5,56,64,55,444418,16761,9586,14040,16756288,11131,4414,730,Tag0,unknown
1545003790134,0,-296,-6.50390625E-5,56,64,55,444418,16761,9586,14040,16756288,11131,4414,730,Tag0,unknown
1545003790134,0,-294,-6.4599609375E-5,56,64,55,444418,16761,9586,14040,16756288,11131,4414,730,Tag0,unknown
1545003790135,0,-283,-6.218261718750001E-5,56,64,55,444418,16761,9586,14040,16756288,11131,4414,730,Tag0,unknown
1545003790135,0,-262,-5.7568359375E-5,56,64,55,444418,16761,9586,14040,16756288,11131,4414,730,Tag0,unknown
1545003790135,0,9,1.9775390625E-6,56,64,55,444418,16761,9586,14040,16756288,11131,4414,730,Tag0,unknown
1545003790135,0,11,2.4169921875E-6,56,64,55,444418,16761,9586,14040,16756288,11131,4414,730,Tag0,unknown
1545003790137,0,0,0.0,56,64,55,444418,16761,9586,14040,16756288,11131,4414,730,Tag0,unknown
1545003790137,0,-268,-5.8886718750000006E-5,56,64,55,444418,16761,9586,14040,16756288,11131,4414,730,Tag0,unknown
1545003790138,0,-267,-5.86669921875E-5,56,64,55,444418,16761,9586,14040,16756288,11131,4414,730,Tag0,unknown
1545003790149,0,-257,-5.64697265625E-5,56,64,55,444418,16761,9586,14040,16756288,11131,4414,730,Tag0,unknown
1545003790149,0,17,3.7353515625000003E-6,56,64,55,444418,16761,9586,14040,16756288,11131,4414,730,Tag0,unknown
1545003790149,0,35,7.6904296875E-6,56,64,55,444418,16761,9586,14040,16756288,11131,4414,730,Tag0,unknown
1545003790149,0,40,8.7890625E-6,56,64,55,444418,16761,9586,14040,16756288,11131,4414,730,Tag0,unknown
1545003790149,0,41,9.008789062499999E-6,56,64,55,444418,16761,9586,14040,16756288,11131,4414,730,Tag0,unknown
1545003790149,0,54,1.1865234375000001E-5,56,64,55,444418,16761,9586,14040,16756288,11131,4414,730,Tag0,unknown
1545003790197,0,68,1.4941406250000001E-5,56,64,55,444418,16761,9586,14040,16756288,11131,4414,730,Tag0,unknown
1545003790215,0,74,1.6259765625E-5,56,64,55,444418,16761,9586,14040,16756288,11131,4414,730,Tag0,unknown
1545003790216,0,77,1.69189453125E-5,56,64,55,444418,16761,9586,14040,16756288,11131,4414,730,Tag0,unknown
1545003790238,0,99,2.1752929687500003E-5,56,64,55,444418,16761,9586,14040,16756288,11131,4414,730,Tag0,unknown
1545003790248,0,123,2.70263671875E-5,56,64,55,444418,16761,9586,14040,16756288,11131,4414,730,Tag0,unknown
1545003790249,0,120,2.63671875E-5,56,64,55,444418,16761,9586,14040,16756288,11131,4414,730,Tag0,unknown
1545003790249,0,91,1.99951171875E-5,56,64,55,444418,16761,9586,14040,16756288,11131,4414,730,Tag0,unknown
1545003790249,0,59,1.29638671875E-5,56,64,55,444418,16761,9586,14040,16756288,11131,4414,730,Tag0,unknown
1545003790249,0,53,1.1645507812500002E-5,56,64,55,444418,16761,9586,14040,16756288,11131,4414,730,Tag0,unknown
1545003790249,0,67,1.4721679687500002E-5,56,64,55,444418,16761,9586,14040,16756288,11131,4414,730,Tag0,unknown
1545003790250,0,70,1.5380859375E-5,56,64,55,444418,16761,9586,14040,16756288,11131,4414,730,Tag0,unknown
1545003790250,0,64,1.40625E-5,56,64,55,444418,16761,9586,14040,16756288,11131,4414,730,Tag0,unknown
1545003790250,0,56,1.23046875E-5,56,64,55,444418,16761,9586,14040,16756288,11131,4414,730,Tag0,unknown
1545003790250,0,52,1.142578125E-5,56,64,55,444418,16761,9586,14040,16756288,11131,4414,730,Tag0,unknown
1545003790250,0,50,1.0986328125E-5,56,64,55,444418,16761,9586,14040,16756288,11131,4414,730,Tag0,unknown
1545003790250,0,58,1.2744140625E-5,56,64,55,444418,16761,9586,14040,16756288,11131,4414,730,Tag0,unknown
1545003790251,0,61,1.34033203125E-5,56,64,55,444418,16761,9586,14040,16756288,11131,4414,730,Tag0,unknown
1545003790251,0,48,1.0546875E-5,56,64,55,444418,16761,9586,14040,16756288,11131,4414,730,Tag0,unknown
1545003790251,0,38,8.349609375E-6,56,64,55,444418,16761,9586,14040,16756288,11131,4414,730,Tag0,unknown
1545003790251,0,38,8.349609375E-6,56,64,55,444418,16761,9586,14040,16756288,11131,4414,730,Tag0,unknown
1545003790251,0,36,7.91015625E-6,56,64,55,444418,16761,9586,14040,16756288,11131,4414,730,Tag0,unknown
1545003790251,0,37,8.1298828125E-6,56,64,55,444418,16761,9586,14040,16756288,11131,4414,730,Tag0,unknown
1545003790251,0,26,5.712890625E-6,56,64,55,444418,16761,9586,14040,16756288,11131,4414,730,Tag0,unknown
1545003790251,0,16,3.515625E-6,56,64,55,444418,16761,9586,14040,16756288,11131,4414,730,Tag0,unknown
1545003790252,0,3,6.591796875E-7,56,64,55,444418,16761,9586,14040,16756288,11131,4414,730,Tag0,unknown
1545003790252,0,1,2.197265625E-7,56,64,55,444418,16761,9586,14040,16756288,11131,4414,730,Tag0,unknown
1545003790252,0,11,2.4169921875E-6,56,64,55,444418,16761,9586,14040,16756288,11131,4414,730,Tag0,unknown
1545003790252,0,27,5.9326171875000005E-6,56,64,55,444418,16761,9586,14040,16756288,11131,4414,730,Tag0,unknown
1545003790252,0,41,9.008789062499999E-6,56,64,55,444418,16761,9586,14040,16756288,11131,4414,730,Tag0,unknown
1545003790252,0,36,7.91015625E-6,56,64,55,444418,16761,9586,14040,16756288,11131,4414,730,Tag0,unknown
1545003790252,0,35,7.6904296875E-6,56,64,55,444418,16761,9586,14040,16756288,11131,4414,730,Tag0,unknown
1545003790253,0,52,1.142578125E-5,56,64,55,444418,16761,9586,14040,16756288,11131,4414,730,Tag0,unknown
1545003790253,0,80,1.7578125E-5,56,64,55,444418,16761,9586,14040,16756288,11131,4414,730,Tag0,unknown
1545003790253,0,88,1.93359375E-5,56,64,55,444418,16761,9586,14040,16756288,11131,4414,730,Tag0,unknown
1545003790253,0,77,1.69189453125E-5,56,64,55,444418,16761,9586,14040,16756288,11131,4414,730,Tag0,unknown
1545003790253,0,64,1.40625E-5,56,64,55,444418,16761,9586,14040,16756288,11131,4414,730,Tag0,unknown
1545003790253,0,56,1.23046875E-5,56,64,55,444418,16761,9586,14040,16756288,11131,4414,730,Tag0,unknown
1545003790253,0,67,1.4721679687500002E-5,56,64,55,444418,16761,9586,14040,16756288,11131,4414,730,Tag0,unknown
1545003790254,0,74,1.6259765625E-5,56,64,55,444418,16761,9586,14040,16756288,11131,4414,730,Tag0,unknown
1545003790254,0,71,1.56005859375E-5,56,64,55,444418,16761,9586,14040,16756288,11131,4414,730,Tag0,unknown
1545003790254,0,69,1.51611328125E-5,56,64,55,444418,16761,9586,14040,16756288,11131,4414,730,Tag0,unknown
1545003790254,0,82,1.8017578124999998E-5,56,64,55,444418,16761,9586,14040,16756288,11131,4414,730,Tag0,unknown
1545003790254,0,85,1.86767578125E-5,56,64,55,444418,16761,9586,14040,16756288,11131,4414,730,Tag0,unknown
1545003790254,0,71,1.56005859375E-5,56,64,55,444418,16761,9586,14040,16756288,11131,4414,730,Tag0,unknown
1545003790255,0,61,1.34033203125E-5,56,64,55,444418,16761,9586,14040,16756288,11131,4414,730,Tag0,unknown
1545003790255,0,59,1.29638671875E-5,56,64,55,444418,16761,9586,14040,16756288,11131,4414,730,Tag0,unknown
1545003790255,0,66,1.4501953125E-5,56,64,55,444418,16761,9586,14040,16756288,11131,4414,730,Tag0,unknown
1545003790255,0,70,1.5380859375E-5,56,64,55,444418,16761,9586,14040,16756288,11131,4414,730,Tag0,unknown
1545003790255,0,64,1.40625E-5,56,64,55,444418,16761,9586,14040,16756288,11131,4414,730,Tag0,unknown
1545003790255,0,50,1.0986328125E-5,56,64,55,444418,16761,9586,14040,16756288,11131,4414,730,Tag0,unknown
1545003790255,0,50,1.0986328125E-5,56,64,55,444418,16761,9586,14040,16756288,11131,4414,730,Tag0,unknown
1545003790256,0,66,1.4501953125E-5,56,64,55,444418,16761,9586,14040,16756288,11131,4414,730,Tag0,unknown
1545003790265,0,72,1.58203125E-5,56,64,55,444418,16761,9586,14040,16756288,11131,4414,730,Tag0,unknown
1545003790265,0,73,1.6040039062500002E-5,56,64,55,444418,16761,9586,14040,16756288,11131,4414,730,Tag0,unknown
1545003790265,0,86,1.8896484375000003E-5,56,64,55,444418,16761,9586,14040,16756288,11131,4414,730,Tag0,unknown
1545003790266,0,89,1.95556640625E-5,56,64,55,444418,16761,9586,14040,16756288,11131,4414,730,Tag0,unknown
1545003790266,0,70,1.5380859375E-5,56,64,55,444418,16761,9586,14040,16756288,11131,4414,730,Tag0,unknown
1545003790266,0,45,9.8876953125E-6,56,64,55,444418,16761,9586,14040,16756288,11131,4414,730,Tag0,unknown
1545003790267,0,52,1.142578125E-5,56,64,55,444418,16761,9586,14040,16756288,11131,4414,730,Tag0,unknown
1545003790267,0,69,1.51611328125E-5,56,64,55,444418,16761,9586,14040,16756288,11131,4414,730,Tag0,unknown
1545003790294,0,76,1.669921875E-5,56,64,55,444418,16761,9586,14040,16756288,11131,4414,730,Tag0,unknown
1545003790298,0,67,1.4721679687500002E-5,56,64,55,444418,16761,9586,14040,16756288,11131,4414,730,Tag0,unknown
1545003790299,0,54,1.1865234375000001E-5,56,64,55,444418,16761,9586,14040,16756288,11131,4414,730,Tag0,unknown
1545003790315,0,55,1.20849609375E-5,56,64,55,444418,16761,9586,14040,16756288,11131,4414,730,Tag0,unknown
1545003790315,0,81,1.77978515625E-5,56,64,55,444418,16761,9586,14040,16756288,11131,4414,730,Tag0,unknown
1545003790315,0,92,2.021484375E-5,56,64,55,444418,16761,9586,14040,16756288,11131,4414,730,Tag0,unknown
1545003790316,0,84,1.8457031250000004E-5,56,64,55,444418,16761,9586,14040,16756288,11131,4414,730,Tag0,unknown
1545003790316,0,73,1.6040039062500002E-5,56,64,55,444418,16761,9586,14040,16756288,11131,4414,730,Tag0,unknown
1545003790316,0,77,1.69189453125E-5,56,64,55,444418,16761,9586,14040,16756288,11131,4414,730,Tag0,unknown
1545003790316,0,90,1.9775390625E-5,56,64,55,444418,16761,9586,14040,16756288,11131,4414,730,Tag0,unknown
1545003790316,0,88,1.93359375E-5,56,64,55,444418,16761,9586,14040,16756288,11131,4414,730,Tag0,unknown
1545003790316,0,77,1.69189453125E-5,56,64,55,444418,16761,9586,14040,16756288,11131,4414,730,Tag0,unknown
1545003790316,0,86,1.8896484375000003E-5,56,64,55,444418,16761,9586,14040,16756288,11131,4414,730,Tag0,unknown
1545003790317,0,92,2.021484375E-5,56,64,55,444418,16761,9586,14040,16756288,11131,4414,730,Tag0,unknown
1545003790317,0,85,1.86767578125E-5,56,64,55,444418,16761,9586,14040,16756288,11131,4414,730,Tag0,unknown
1545003790317,0,73,1.6040039062500002E-5,56,64,55,444418,16761,9586,14040,16756288,11131,4414,730,Tag0,unknown
1545003790317,0,75,1.64794921875E-5,56,64,55,444418,16761,9586,14040,16756288,11131,4414,730,Tag0,unknown
1545003790317,0,85,1.86767578125E-5,56,64,55,444418,16761,9586,14040,16756288,11131,4414,730,Tag0,unknown
1545003790317,0,98,2.1533203125E-5,56,64,55,444418,16761,9586,14040,16756288,11131,4414,730,Tag0,unknown
1545003790317,0,91,1.99951171875E-5,56,64,55,444418,16761,9586,14040,16756288,11131,4414,730,Tag0,unknown
1545003790318,0,69,1.51611328125E-5,56,64,55,444418,16761,9586,14040,16756288,11131,4414,730,Tag0,unknown
1545003790318,0,56,1.23046875E-5,56,64,55,444418,16761,9586,14040,16756288,11131,4414,730,Tag0,unknown
1545003790318,0,56,1.23046875E-5,56,64,55,444418,16761,9586,14040,16756288,11131,4414,730,Tag0,unknown
1545003790318,0,57,1.2524414062500001E-5,56,64,55,444418,16761,9586,14040,16756288,11131,4414,730,Tag0,unknown
1545003790318,0,57,1.2524414062500001E-5,56,64,55,444418,16761,9586,14040,16756288,11131,4414,730,Tag0,unknown
1545003790318,0,72,1.58203125E-5,56,64,55,444418,16761,9586,14040,16756288,11131,4414,730,Tag0,unknown
1545003790319,0,91,1.99951171875E-5,56,64,55,444418,16761,9586,14040,16756288,11131,4414,730,Tag0,unknown
1545003790319,0,99,2.1752929687500003E-5,56,64,55,444418,16761,9586,14040,16756288,11131,4414,730,Tag0,unknown
1545003790332,0,99,2.1752929687500003E-5,56,64,55,444418,16761,9586,14040,16756288,11131,4414,730,Tag0,unknown
1545003790332,0,102,2.2412109374999998E-5,56,64,55,444418,16761,9586,14040,16756288,11131,4414,730,Tag0,unknown
1545003790332,0,106,2.3291015625000003E-5,56,64,55,444418,16761,9586,14040,16756288,11131,4414,730,Tag0,unknown
1545003790332,0,100,2.197265625E-5,56,64,55,444418,16761,9586,14040,16756288,11131,4414,730,Tag0,unknown
1545003790361,0,85,1.86767578125E-5,56,64,55,444418,16761,9586,14040,16756288,11131,4414,730,Tag0,unknown
1545003790362,0,91,1.99951171875E-5,56,64,55,444418,16761,9586,14040,16756288,11131,4414,730,Tag0,unknown
1545003790362,0,120,2.63671875E-5,56,64,55,444418,16761,9586,14040,16756288,11131,4414,730,Tag0,unknown
1545003790362,0,-124,-2.724609375E-5,56,64,55,444418,16761,9586,14040,16756288,11131,4414,730,Tag0,unknown
1545003790362,0,124,2.724609375E-5,56,64,55,444418,16761,9586,14040,16756288,11131,4414,730,Tag0,unknown
1545003790362,0,119,2.6147460937500004E-5,56,64,55,444418,16761,9586,14040,16756288,11131,4414,730,Tag0,unknown
1545003790362,0,119,2.6147460937500004E-5,56,64,55,444418,16761,9586,14040,16756288,11131,4414,730,Tag0,unknown
1545003790365,0,112,2.4609375E-5,56,64,55,444418,16761,9586,14040,16756288,11131,4414,730,Tag0,unknown
1545003790365,0,90,1.9775390625E-5,56,64,55,444418,16761,9586,14040,16756288,11131,4414,730,Tag0,unknown
1545003790365,0,73,1.6040039062500002E-5,56,64,55,444418,16761,9586,14040,16756288,11131,4414,730,Tag0,unknown
1545003790365,0,64,1.40625E-5,56,64,55,444418,16761,9586,14040,16756288,11131,4414,730,Tag0,unknown
1545003790365,0,56,1.23046875E-5,56,64,55,444418,16761,9586,14040,16756288,11131,4414,730,Tag0,unknown
1545003790366,0,59,1.29638671875E-5,56,64,55,444418,16761,9586,14040,16756288,11131,4414,730,Tag0,unknown
1545003790366,0,64,1.40625E-5,56,64,55,444418,16761,9586,14040,16756288,11131,4414,730,Tag0,unknown
1545003790366,0,71,1.56005859375E-5,56,64,55,444418,16761,9586,14040,16756288,11131,4414,730,Tag0,unknown
1545003790366,0,70,1.5380859375E-5,56,64,55,444418,16761,9586,14040,16756288,11131,4414,730,Tag0,unknown
1545003790367,0,65,1.42822265625E-5,56,64,55,444418,16761,9586,14040,16756288,11131,4414,730,Tag0,unknown
1545003790367,0,74,1.6259765625E-5,56,64,55,444418,16761,9586,14040,16756288,11131,4414,730,Tag0,unknown
1545003790367,0,88,1.93359375E-5,56,64,55,444418,16761,9586,14040,16756288,11131,4414,730,Tag0,unknown
1545003790367,0,87,1.91162109375E-5,56,64,55,444418,16761,9586,14040,16756288,11131,4414,730,Tag0,unknown
1545003790381,0,84,1.8457031250000004E-5,56,64,55,444418,16761,9586,14040,16756288,11131,4414,730,Tag0,unknown
1545003790382,0,81,1.77978515625E-5,56,64,55,444418,16761,9586,14040,16756288,11131,4414,730,Tag0,unknown
1545003790382,0,85,1.86767578125E-5,56,64,55,444418,16761,9586,14040,16756288,11131,4414,730,Tag0,unknown
1545003790382,0,90,1.9775390625E-5,56,64,55,444418,16761,9586,14040,16756288,11131,4414,730,Tag0,unknown
1545003790382,0,100,2.197265625E-5,56,64,55,444418,16761,9586,14040,16756288,11131,4414,730,Tag0,unknown
1545003790383,0,105,2.30712890625E-5,56,64,55,444418,16761,9586,14040,16756288,11131,4414,730,Tag0,unknown
1545003790383,0,121,2.6586914062500003E-5,56,64,55,444418,16761,9586,14040,16756288,11131,4414,730,Tag0,unknown
1545003790383,0,121,2.6586914062500003E-5,56,64,55,444418,16761,9586,14040,16756288,11131,4414,730,Tag0,unknown
1545003790383,0,108,2.3730468750000002E-5,56,64,55,444418,16761,9586,14040,16756288,11131,4414,730,Tag0,unknown
1545003790383,0,107,2.35107421875E-5,56,64,55,444418,16761,9586,14040,16756288,11131,4414,730,Tag0,unknown
1545003790414,0,118,2.5927734375E-5,56,64,55,444418,16761,9586,14040,16756288,11131,4414,730,Tag0,unknown
1545003790432,0,-124,-2.724609375E-5,56,64,55,444418,16761,9586,14040,16756288,11131,4414,730,Tag0,unknown
1545003790433,0,-120,-2.63671875E-5,56,64,55,444418,16761,9586,14040,16756288,11131,4414,730,Tag0,unknown
1545003790433,0,-124,-2.724609375E-5,56,64,55,444418,16761,9586,14040,16756288,11131,4414,730,Tag0,unknown
1545003790433,0,123,2.70263671875E-5,56,64,55,444418,16761,9586,14040,16756288,11131,4414,730,Tag0,unknown
1545003790448,0,117,2.5708007812499998E-5,56,64,55,444418,16761,9586,14040,16756288,11131,4414,730,Tag0,unknown
1545003790449,0,115,2.52685546875E-5,56,64,55,444418,16761,9586,14040,16756288,11131,4414,730,Tag0,unknown
1545003790449,0,101,2.2192382812500002E-5,56,64,55,444418,16761,9586,14040,16756288,11131,4414,730,Tag0,unknown
1545003790449,0,60,1.318359375E-5,56,64,55,444418,16761,9586,14040,16756288,11131,4414,730,Tag0,unknown
1545003790449,0,19,4.1748046875E-6,56,64,55,444418,16761,9586,14040,16756288,11131,4414,730,Tag0,unknown
1545003790449,0,22,4.833984375E-6,56,64,55,444418,16761,9586,14040,16756288,11131,4414,730,Tag0,unknown
1545003790449,0,74,1.6259765625E-5,56,64,55,444418,16761,9586,14040,16756288,11131,4414,730,Tag0,unknown
1545003790449,0,116,2.548828125E-5,56,64,55,444418,16761,9586,14040,16756288,11131,4414,730,Tag0,unknown
1545003790450,0,116,2.548828125E-5,56,64,55,444418,16761,9586,14040,16756288,11131,4414,730,Tag0,unknown
1545003790450,0,91,1.99951171875E-5,56,64,55,444418,16761,9586,14040,16756288,11131,4414,730,Tag0,unknown
1545003790450,0,74,1.6259765625E-5,56,64,55,444418,16761,9586,14040,16756288,11131,4414,730,Tag0,unknown
1545003790450,0,86,1.8896484375000003E-5,56,64,55,444418,16761,9586,14040,16756288,11131,4414,730,Tag0,unknown
1545003790451,0,114,2.5048828125000003E-5,56,64,55,444418,16761,9586,14040,16756288,11131,4414,730,Tag0,unknown
1545003790451,0,-108,-2.3730468750000002E-5,56,64,55,444418,16761,9586,14040,16756288,11131,4414,730,Tag0,unknown
1545003790451,0,-102,-2.2412109374999998E-5,56,64,55,444418,16761,9586,14040,16756288,11131,4414,730,Tag0,unknown
1545003790451,0,-121,-2.6586914062500003E-5,56,64,55,444418,16761,9586,14040,16756288,11131,4414,730,Tag0,unknown
1545003790451,0,108,2.3730468750000002E-5,56,64,55,444418,16761,9586,14040,16756288,11131,4414,730,Tag0,unknown
1545003790451,0,81,1.77978515625E-5,56,64,55,444418,16761,9586,14040,16756288,11131,4414,730,Tag0,unknown
1545003790451,0,53,1.1645507812500002E-5,56,64,55,444418,16761,9586,14040,16756288,11131,4414,730,Tag0,unknown
1545003790454,0,40,8.7890625E-6,51,74,55,142192,23683,28665,16752211,16751692,20355,5041,1925,Tag0,unknown
1545003790454,0,37,8.1298828125E-6,51,74,55,142192,23683,28665,16752211,16751692,20355,5041,1925,Tag0,unknown
1545003790454,0,48,1.0546875E-5,51,74,55,142192,23683,28665,16752211,16751692,20355,5041,1925,Tag0,unknown
1545003790454,0,72,1.58203125E-5,51,74,55,142192,23683,28665,16752211,16751692,20355,5041,1925,Tag0,unknown
1545003790475,0,88,1.93359375E-5,51,74,55,142192,23683,28665,16752211,16751692,20355,5041,1925,Tag0,unknown
1545003790481,0,87,1.91162109375E-5,51,74,55,142192,23683,28665,16752211,16751692,20355,5041,1925,Tag0,unknown
1545003790481,0,81,1.77978515625E-5,51,74,55,142192,23683,28665,16752211,16751692,20355,5041,1925,Tag0,unknown
1545003790482,0,72,1.58203125E-5,51,74,55,142192,23683,28665,16752211,16751692,20355,5041,1925,Tag0,unknown
1545003790482,0,70,1.5380859375E-5,51,74,55,142192,23683,28665,16752211,16751692,20355,5041,1925,Tag0,unknown
1545003790500,0,81,1.77978515625E-5,51,74,55,142192,23683,28665,16752211,16751692,20355,5041,1925,Tag0,unknown
1545003790500,0,87,1.91162109375E-5,51,74,55,142192,23683,28665,16752211,16751692,20355,5041,1925,Tag0,unknown
1545003790500,0,85,1.86767578125E-5,51,74,55,142192,23683,28665,16752211,16751692,20355,5041,1925,Tag0,unknown
1545003790500,0,80,1.7578125E-5,51,74,55,142192,23683,28665,16752211,16751692,20355,5041,1925,Tag0,unknown
1545003790501,0,76,1.669921875E-5,51,74,55,142192,23683,28665,16752211,16751692,20355,5041,1925,Tag0,unknown
1545003790501,0,84,1.8457031250000004E-5,51,74,55,142192,23683,28665,16752211,16751692,20355,5041,1925,Tag0,unknown
1545003790501,0,89,1.95556640625E-5,51,74,55,142192,23683,28665,16752211,16751692,20355,5041,1925,Tag0,unknown
1545003790501,0,84,1.8457031250000004E-5,51,74,55,142192,23683,28665,16752211,16751692,20355,5041,1925,Tag0,unknown
1545003790501,0,66,1.4501953125E-5,51,74,55,142192,23683,28665,16752211,16751692,20355,5041,1925,Tag0,unknown
1545003790502,0,42,9.228515625000002E-6,51,74,55,142192,23683,28665,16752211,16751692,20355,5041,1925,Tag0,unknown
1545003790502,0,33,7.2509765625E-6,51,74,55,142192,23683,28665,16752211,16751692,20355,5041,1925,Tag0,unknown
1545003790502,0,34,7.4707031250000005E-6,51,74,55,142192,23683,28665,16752211,16751692,20355,5041,1925,Tag0,unknown
1545003790503,0,23,5.0537109375E-6,51,74,55,142192,23683,28665,16752211,16751692,20355,5041,1925,Tag0,unknown
1545003790503,0,16,3.515625E-6,51,74,55,142192,23683,28665,16752211,16751692,20355,5041,1925,Tag0,unknown
1545003790503,0,19,4.1748046875E-6,51,74,55,142192,23683,28665,16752211,16751692,20355,5041,1925,Tag0,unknown
1545003790503,0,33,7.2509765625E-6,51,74,55,142192,23683,28665,16752211,16751692,20355,5041,1925,Tag0,unknown
1545003790503,0,39,8.5693359375E-6,51,74,55,142192,23683,28665,16752211,16751692,20355,5041,1925,Tag0,unknown
1545003790504,0,25,5.4931640625E-6,51,74,55,142192,23683,28665,16752211,16751692,20355,5041,1925,Tag0,unknown
1545003790504,0,4,8.7890625E-7,51,74,55,142192,23683,28665,16752211,16751692,20355,5041,1925,Tag0,unknown
1545003790504,0,-264,-5.80078125E-5,51,74,55,142192,23683,28665,16752211,16751692,20355,5041,1925,Tag0,unknown
1545003790504,0,-260,-5.712890625E-5,51,74,55,142192,23683,28665,16752211,16751692,20355,5041,1925,Tag0,unknown
1545003790504,0,12,2.63671875E-6,51,74,55,142192,23683,28665,16752211,16751692,20355,5041,1925,Tag0,unknown
1545003790505,0,20,4.39453125E-6,51,74,55,142192,23683,28665,16752211,16751692,20355,5041,1925,Tag0,unknown
1545003790505,0,25,5.4931640625E-6,51,74,55,142192,23683,28665,16752211,16751692,20355,5041,1925,Tag0,unknown
1545003790505,0,34,7.4707031250000005E-6,51,74,55,142192,23683,28665,16752211,16751692,20355,5041,1925,Tag0,unknown
1545003790505,0,41,9.008789062499999E-6,51,74,55,142192,23683,28665,16752211,16751692,20355,5041,1925,Tag0,unknown
1545003790505,0,51,1.1206054687499999E-5,51,74,55,142192,23683,28665,16752211,16751692,20355,5041,1925,Tag0,unknown
1545003790506,0,55,1.20849609375E-5,51,74,55,142192,23683,28665,16752211,16751692,20355,5041,1925,Tag0,unknown
1545003790516,0,68,1.4941406250000001E-5,51,74,55,142192,23683,28665,16752211,16751692,20355,5041,1925,Tag0,unknown
1545003790535,0,84,1.8457031250000004E-5,51,74,55,142192,23683,28665,16752211,16751692,20355,5041,1925,Tag0,unknown
1545003790553,0,98,2.1533203125E-5,51,74,55,142192,23683,28665,16752211,16751692,20355,5041,1925,Tag0,unknown
1545003790555,0,99,2.1752929687500003E-5,51,74,55,142192,23683,28665,16752211,16751692,20355,5041,1925,Tag0,unknown
1545003790555,0,104,2.28515625E-5,51,74,55,142192,23683,28665,16752211,16751692,20355,5041,1925,Tag0,unknown
1545003790555,0,118,2.5927734375E-5,51,74,55,142192,23683,28665,16752211,16751692,20355,5041,1925,Tag0,unknown
1545003790555,0,121,2.6586914062500003E-5,51,74,55,142192,23683,28665,16752211,16751692,20355,5041,1925,Tag0,unknown
1545003790555,0,115,2.52685546875E-5,51,74,55,142192,23683,28665,16752211,16751692,20355,5041,1925,Tag0,unknown
1545003790556,0,99,2.1752929687500003E-5,51,74,55,142192,23683,28665,16752211,16751692,20355,5041,1925,Tag0,unknown
1545003790556,0,92,2.021484375E-5,51,74,55,142192,23683,28665,16752211,16751692,20355,5041,1925,Tag0,unknown
1545003790556,0,87,1.91162109375E-5,51,74,55,142192,23683,28665,16752211,16751692,20355,5041,1925,Tag0,unknown
1545003790556,0,74,1.6259765625E-5,51,74,55,142192,23683,28665,16752211,16751692,20355,5041,1925,Tag0,unknown
1545003790556,0,67,1.4721679687500002E-5,51,74,55,142192,23683,28665,16752211,16751692,20355,5041,1925,Tag0,unknown
1545003790557,0,58,1.2744140625E-5,51,74,55,142192,23683,28665,16752211,16751692,20355,5041,1925,Tag0,unknown
1545003790557,0,50,1.0986328125E-5,51,74,55,142192,23683,28665,16752211,16751692,20355,5041,1925,Tag0,unknown
1545003790557,0,55,1.20849609375E-5,51,74,55,142192,23683,28665,16752211,16751692,20355,5041,1925,Tag0,unknown
1545003790557,0,56,1.23046875E-5,51,74,55,142192,23683,28665,16752211,16751692,20355,5041,1925,Tag0,unknown
1545003790557,0,45,9.8876953125E-6,51,74,55,142192,23683,28665,16752211,16751692,20355,5041,1925,Tag0,unknown
1545003790557,0,22,4.833984375E-6,51,74,55,142192,23683,28665,16752211,16751692,20355,5041,1925,Tag0,unknown
1545003790558,0,11,2.4169921875E-6,51,74,55,142192,23683,28665,16752211,16751692,20355,5041,1925,Tag0,unknown
1545003790558,0,27,5.9326171875000005E-6,51,74,55,142192,23683,28665,16752211,16751692,20355,5041,1925,Tag0,unknown
1545003790558,0,44,9.66796875E-6,51,74,55,142192,23683,28665,16752211,16751692,20355,5041,1925,Tag0,unknown
1545003790558,0,52,1.142578125E-5,51,74,55,142192,23683,28665,16752211,16751692,20355,5041,1925,Tag0,unknown
1545003790559,0,50,1.0986328125E-5,51,74,55,142192,23683,28665,16752211,16751692,20355,5041,1925,Tag0,unknown
1545003790559,0,43,9.448242187500001E-6,51,74,55,142192,23683,28665,16752211,16751692,20355,5041,1925,Tag0,unknown
1545003790559,0,49,1.07666015625E-5,51,74,55,142192,23683,28665,16752211,16751692,20355,5041,1925,Tag0,unknown
1545003790567,0,52,1.142578125E-5,51,74,55,142192,23683,28665,16752211,16751692,20355,5041,1925,Tag0,unknown
1545003790567,0,57,1.2524414062500001E-5,51,74,55,142192,23683,28665,16752211,16751692,20355,5041,1925,Tag0,unknown
1545003790567,0,72,1.58203125E-5,51,74,55,142192,23683,28665,16752211,16751692,20355,5041,1925,Tag0,unknown
1545003790568,0,86,1.8896484375000003E-5,51,74,55,142192,23683,28665,16752211,16751692,20355,5041,1925,Tag0,unknown
1545003790568,0,89,1.95556640625E-5,51,74,55,142192,23683,28665,16752211,16751692,20355,5041,1925,Tag0,unknown
1545003790568,0,86,1.8896484375000003E-5,51,74,55,142192,23683,28665,16752211,16751692,20355,5041,1925,Tag0,unknown
1545003790596,0,71,1.56005859375E-5,51,74,55,142192,23683,28665,16752211,16751692,20355,5041,1925,Tag0,unknown
1545003790601,0,56,1.23046875E-5,51,74,55,142192,23683,28665,16752211,16751692,20355,5041,1925,Tag0,unknown
1545003790601,0,69,1.51611328125E-5,51,74,55,142192,23683,28665,16752211,16751692,20355,5041,1925,Tag0,unknown
1545003790616,0,84,1.8457031250000004E-5,51,74,55,142192,23683,28665,16752211,16751692,20355,5041,1925,Tag0,unknown
1545003790617,0,73,1.6040039062500002E-5,51,74,55,142192,23683,28665,16752211,16751692,20355,5041,1925,Tag0,unknown
1545003790617,0,57,1.2524414062500001E-5,51,74,55,142192,23683,28665,16752211,16751692,20355,5041,1925,Tag0,unknown
1545003790617,0,48,1.0546875E-5,51,74,55,142192,23683,28665,16752211,16751692,20355,5041,1925,Tag0,unknown
1545003790617,0,34,7.4707031250000005E-6,51,74,55,142192,23683,28665,16752211,16751692,20355,5041,1925,Tag0,unknown
1545003790617,0,25,5.4931640625E-6,51,74,55,142192,23683,28665,16752211,16751692,20355,5041,1925,Tag0,unknown
1545003790618,0,32,7.03125E-6,51,74,55,142192,23683,28665,16752211,16751692,20355,5041,1925,Tag0,unknown
1545003790618,0,26,5.712890625E-6,51,74,55,142192,23683,28665,16752211,16751692,20355,5041,1925,Tag0,unknown
1545003790618,0,20,4.39453125E-6,51,74,55,142192,23683,28665,16752211,16751692,20355,5041,1925,Tag0,unknown
1545003790618,0,17,3.7353515625000003E-6,51,74,55,142192,23683,28665,16752211,16751692,20355,5041,1925,Tag0,unknown
1545003790619,0,17,3.7353515625000003E-6,51,74,55,142192,23683,28665,16752211,16751692,20355,5041,1925,Tag0,unknown
1545003790619,0,21,4.614257812500001E-6,51,74,55,142192,23683,28665,16752211,16751692,20355,5041,1925,Tag0,unknown
1545003790619,0,19,4.1748046875E-6,51,74,55,142192,23683,28665,16752211,16751692,20355,5041,1925,Tag0,unknown
1545003790619,0,12,2.63671875E-6,51,74,55,142192,23683,28665,16752211,16751692,20355,5041,1925,Tag0,unknown
1545003790619,0,10,2.197265625E-6,51,74,55,142192,23683,28665,16752211,16751692,20355,5041,1925,Tag0,unknown
1545003790619,0,9,1.9775390625E-6,51,74,55,142192,23683,28665,16752211,16751692,20355,5041,1925,Tag0,unknown
1545003790620,0,5,1.0986328125E-6,51,74,55,142192,23683,28665,16752211,16751692,20355,5041,1925,Tag0,unknown
1545003790620,0,2,4.39453125E-7,51,74,55,142192,23683,28665,16752211,16751692,20355,5041,1925,Tag0,unknown
1545003790620,0,4,8.7890625E-7,51,74,55,142192,23683,28665,16752211,16751692,20355,5041,1925,Tag0,unknown
1545003790620,0,16,3.515625E-6,51,74,55,142192,23683,28665,16752211,16751692,20355,5041,1925,Tag0,unknown
1545003790621,0,32,7.03125E-6,51,74,55,142192,23683,28665,16752211,16751692,20355,5041,1925,Tag0,unknown
1545003790621,0,37,8.1298828125E-6,51,74,55,142192,23683,28665,16752211,16751692,20355,5041,1925,Tag0,unknown
1545003790621,0,36,7.91015625E-6,51,74,55,142192,23683,28665,16752211,16751692,20355,5041,1925,Tag0,unknown
1545003790621,0,27,5.9326171875000005E-6,51,74,55,142192,23683,28665,16752211,16751692,20355,5041,1925,Tag0,unknown
1545003790632,0,22,4.833984375E-6,51,74,55,142192,23683,28665,16752211,16751692,20355,5041,1925,Tag0,unknown
1545003790633,0,22,4.833984375E-6,51,74,55,142192,23683,28665,16752211,16751692,20355,5041,1925,Tag0,unknown
1545003790633,0,27,5.9326171875000005E-6,51,74,55,142192,23683,28665,16752211,16751692,20355,5041,1925,Tag0,unknown
1545003790655,0,38,8.349609375E-6,51,74,55,142192,23683,28665,16752211,16751692,20355,5041,1925,Tag0,unknown
1545003790673,0,56,1.23046875E-5,51,74,55,142192,23683,28665,16752211,16751692,20355,5041,1925,Tag0,unknown
1545003790674,0,73,1.6040039062500002E-5,51,74,55,142192,23683,28665,16752211,16751692,20355,5041,1925,Tag0,unknown
1545003790674,0,76,1.669921875E-5,51,74,55,142192,23683,28665,16752211,16751692,20355,5041,1925,Tag0,unknown
1545003790675,0,84,1.8457031250000004E-5,51,74,55,142192,23683,28665,16752211,16751692,20355,5041,1925,Tag0,unknown
1545003790675,0,103,2.26318359375E-5,51,74,55,142192,23683,28665,16752211,16751692,20355,5041,1925,Tag0,unknown
1545003790675,0,115,2.52685546875E-5,51,74,55,142192,23683,28665,16752211,16751692,20355,5041,1925,Tag0,unknown
1545003790675,0,108,2.3730468750000002E-5,51,74,55,142192,23683,28665,16752211,16751692,20355,5041,1925,Tag0,unknown
1545003790675,0,91,1.99951171875E-5,51,74,55,142192,23683,28665,16752211,16751692,20355,5041,1925,Tag0,unknown
1545003790676,0,70,1.5380859375E-5,51,74,55,142192,23683,28665,16752211,16751692,20355,5041,1925,Tag0,unknown
1545003790676,0,57,1.2524414062500001E-5,51,74,55,142192,23683,28665,16752211,16751692,20355,5041,1925,Tag0,unknown
1545003790676,0,58,1.2744140625E-5,51,74,55,142192,23683,28665,16752211,16751692,20355,5041,1925,Tag0,unknown
1545003790676,0,61,1.34033203125E-5,51,74,55,142192,23683,28665,16752211,16751692,20355,5041,1925,Tag0,unknown
1545003790676,0,54,1.1865234375000001E-5,51,74,55,142192,23683,28665,16752211,16751692,20355,5041,1925,Tag0,unknown
1545003790677,0,40,8.7890625E-6,51,74,55,142192,23683,28665,16752211,16751692,20355,5041,1925,Tag0,unknown
1545003790677,0,27,5.9326171875000005E-6,51,74,55,142192,23683,28665,16752211,16751692,20355,5041,1925,Tag0,unknown
1545003790677,0,23,5.0537109375E-6,51,74,55,142192,23683,28665,16752211,16751692,20355,5041,1925,Tag0,unknown
1545003790677,0,24,5.2734375E-6,51,74,55,142192,23683,28665,16752211,16751692,20355,5041,1925,Tag0,unknown
1545003790677,0,27,5.9326171875000005E-6,51,74,55,142192,23683,28665,16752211,16751692,20355,5041,1925,Tag0,unknown
1545003790678,0,39,8.5693359375E-6,51,74,55,142192,23683,28665,16752211,16751692,20355,5041,1925,Tag0,unknown
1545003790678,0,50,1.0986328125E-5,51,74,55,142192,23683,28665,16752211,16751692,20355,5041,1925,Tag0,unknown
1545003790678,0,50,1.0986328125E-5,51,74,55,142192,23683,28665,16752211,16751692,20355,5041,1925,Tag0,unknown
1545003790679,0,50,1.0986328125E-5,51,74,55,142192,23683,28665,16752211,16751692,20355,5041,1925,Tag0,unknown
1545003790682,0,55,1.20849609375E-5,51,74,55,142192,23683,28665,16752211,16751692,20355,5041,1925,Tag0,unknown
1545003790682,0,65,1.42822265625E-5,51,74,55,142192,23683,28665,16752211,16751692,20355,5041,1925,Tag0,unknown
1545003790683,0,66,1.4501953125E-5,51,74,55,142192,23683,28665,16752211,16751692,20355,5041,1925,Tag0,unknown
1545003790683,0,54,1.1865234375000001E-5,51,74,55,142192,23683,28665,16752211,16751692,20355,5041,1925,Tag0,unknown
1545003790683,0,53,1.1645507812500002E-5,51,74,55,142192,23683,28665,16752211,16751692,20355,5041,1925,Tag0,unknown
1545003790683,0,69,1.51611328125E-5,51,74,55,142192,23683,28665,16752211,16751692,20355,5041,1925,Tag0,unknown
1545003790699,0,98,2.1533203125E-5,51,74,55,142192,23683,28665,16752211,16751692,20355,5041,1925,Tag0,unknown
1545003790700,0,117,2.5708007812499998E-5,51,74,55,142192,23683,28665,16752211,16751692,20355,5041,1925,Tag0,unknown
1545003790730,0,113,2.48291015625E-5,51,74,55,142192,23683,28665,16752211,16751692,20355,5041,1925,Tag0,unknown
1545003790730,0,98,2.1533203125E-5,51,74,55,142192,23683,28665,16752211,16751692,20355,5041,1925,Tag0,unknown
1545003790730,0,97,2.13134765625E-5,51,74,55,142192,23683,28665,16752211,16751692,20355,5041,1925,Tag0,unknown
1545003790731,0,102,2.2412109374999998E-5,51,74,55,142192,23683,28665,16752211,16751692,20355,5041,1925,Tag0,unknown
1545003790731,0,88,1.93359375E-5,51,74,55,142192,23683,28665,16752211,16751692,20355,5041,1925,Tag0,unknown
1545003790731,0,68,1.4941406250000001E-5,51,74,55,142192,23683,28665,16752211,16751692,20355,5041,1925,Tag0,unknown
1545003790732,0,59,1.29638671875E-5,51,74,55,142192,23683,28665,16752211,16751692,20355,5041,1925,Tag0,unknown
1545003790732,0,48,1.0546875E-5,51,74,55,142192,23683,28665,16752211,16751692,20355,5041,1925,Tag0,unknown
1545003790732,0,26,5.712890625E-6,51,74,55,142192,23683,28665,16752211,16751692,20355,5041,1925,Tag0,unknown
1545003790732,0,9,1.9775390625E-6,51,74,55,142192,23683,28665,16752211,16751692,20355,5041,1925,Tag0,unknown
1545003790732,0,-264,-5.80078125E-5,51,74,55,142192,23683,28665,16752211,16751692,20355,5041,1925,Tag0,unknown
1545003790733,0,-265,-5.82275390625E-5,51,74,55,142192,23683,28665,16752211,16751692,20355,5041,1925,Tag0,unknown
1545003790733,0,1,2.197265625E-7,51,74,55,142192,23683,28665,16752211,16751692,20355,5041,1925,Tag0,unknown
1545003790733,0,12,2.63671875E-6,51,74,55,142192,23683,28665,16752211,16751692,20355,5041,1925,Tag0,unknown
1545003790736,0,18,3.955078125E-6,51,74,55,142192,23683,28665,16752211,16751692,20355,5041,1925,Tag0,unknown
1545003790749,0,21,4.614257812500001E-6,51,74,55,142192,23683,28665,16752211,16751692,20355,5041,1925,Tag0,unknown
1545003790749,0,33,7.2509765625E-6,51,74,55,142192,23683,28665,16752211,16751692,20355,5041,1925,Tag0,unknown
1545003790750,0,23,5.0537109375E-6,51,74,55,142192,23683,28665,16752211,16751692,20355,5041,1925,Tag0,unknown
1545003790750,0,3,6.591796875E-7,51,74,55,142192,23683,28665,16752211,16751692,20355,5041,1925,Tag0,unknown
1545003790750,0,1,2.197265625E-7,51,74,55,142192,23683,28665,16752211,16751692,20355,5041,1925,Tag0,unknown
1545003790751,0,18,3.955078125E-6,51,74,55,142192,23683,28665,16752211,16751692,20355,5041,1925,Tag0,unknown
1545003790751,0,27,5.9326171875000005E-6,51,74,55,142192,23683,28665,16752211,16751692,20355,5041,1925,Tag0,unknown
1545003790751,0,20,4.39453125E-6,51,74,55,142192,23683,28665,16752211,16751692,20355,5041,1925,Tag0,unknown
1545003790751,0,5,1.0986328125E-6,51,74,55,142192,23683,28665,16752211,16751692,20355,5041,1925,Tag0,unknown
1545003790751,0,11,2.4169921875E-6,51,74,55,142192,23683,28665,16752211,16751692,20355,5041,1925,Tag0,unknown
1545003790751,0,36,7.91015625E-6,51,74,55,142192,23683,28665,16752211,16751692,20355,5041,1925,Tag0,unknown
1545003790752,0,53,1.1645507812500002E-5,51,74,55,142192,23683,28665,16752211,16751692,20355,5041,1925,Tag0,unknown
1545003790752,0,66,1.4501953125E-5,51,74,55,142192,23683,28665,16752211,16751692,20355,5041,1925,Tag0,unknown
1545003790765,0,76,1.669921875E-5,51,74,55,142192,23683,28665,16752211,16751692,20355,5041,1925,Tag0,unknown
1545003790766,0,90,1.9775390625E-5,51,74,55,142192,23683,28665,16752211,16751692,20355,5041,1925,Tag0,unknown
1545003790766,0,91,1.99951171875E-5,51,74,55,142192,23683,28665,16752211,16751692,20355,5041,1925,Tag0,unknown
1545003790785,0,83,1.82373046875E-5,51,74,55,142192,23683,28665,16752211,16751692,20355,5041,1925,Tag0,unknown
1545003790785,0,83,1.82373046875E-5,51,74,55,142192,23683,28665,16752211,16751692,20355,5041,1925,Tag0,unknown
1545003790785,0,90,1.9775390625E-5,51,74,55,142192,23683,28665,16752211,16751692,20355,5041,1925,Tag0,unknown
1545003790785,0,99,2.1752929687500003E-5,51,74,55,142192,23683,28665,16752211,16751692,20355,5041,1925,Tag0,unknown
1545003790785,0,88,1.93359375E-5,51,74,55,142192,23683,28665,16752211,16751692,20355,5041,1925,Tag0,unknown
1545003790786,0,73,1.6040039062500002E-5,51,74,55,142192,23683,28665,16752211,16751692,20355,5041,1925,Tag0,unknown
1545003790786,0,64,1.40625E-5,51,74,55,142192,23683,28665,16752211,16751692,20355,5041,1925,Tag0,unknown
1545003790786,0,56,1.23046875E-5,51,74,55,142192,23683,28665,16752211,16751692,20355,5041,1925,Tag0,unknown
1545003790786,0,53,1.1645507812500002E-5,51,74,55,142192,23683,28665,16752211,16751692,20355,5041,1925,Tag0,unknown
1545003790787,0,41,9.008789062499999E-6,51,74,55,142192,23683,28665,16752211,16751692,20355,5041,1925,Tag0,unknown
1545003790787,0,16,3.515625E-6,51,74,55,142192,23683,28665,16752211,16751692,20355,5041,1925,Tag0,unknown
1545003790787,0,-283,-6.218261718750001E-5,51,74,55,142192,23683,28665,16752211,16751692,20355,5041,1925,Tag0,unknown
1545003790787,0,-332,-7.294921875E-5,51,74,55,142192,23683,28665,16752211,16751692,20355,5041,1925,Tag0,unknown
1545003790787,0,-324,-7.119140625E-5,51,74,55,142192,23683,28665,16752211,16751692,20355,5041,1925,Tag0,unknown
1545003790787,0,-262,-5.7568359375E-5,51,74,55,142192,23683,28665,16752211,16751692,20355,5041,1925,Tag0,unknown
1545003790788,0,49,1.07666015625E-5,51,74,55,142192,23683,28665,16752211,16751692,20355,5041,1925,Tag0,unknown
1545003790788,0,53,1.1645507812500002E-5,51,74,55,142192,23683,28665,16752211,16751692,20355,5041,1925,Tag0,unknown
1545003790788,0,5,1.0986328125E-6,51,74,55,142192,23683,28665,16752211,16751692,20355,5041,1925,Tag0,unknown
1545003790803,0,-306,-6.723632812500001E-5,51,74,55,142192,23683,28665,16752211,16751692,20355,5041,1925,Tag0,unknown
1545003790803,0,-332,-7.294921875E-5,51,74,55,142192,23683,28665,16752211,16751692,20355,5041,1925,Tag0,unknown
1545003790803,0,-311,-6.833496093750001E-5,51,74,55,142192,23683,28665,16752211,16751692,20355,5041,1925,Tag0,unknown
1545003790804,0,-284,-6.240234375E-5,51,74,55,142192,23683,28665,16752211,16751692,20355,5041,1925,Tag0,unknown
1545003790804,0,-299,-6.56982421875E-5,51,74,55,142192,23683,28665,16752211,16751692,20355,5041,1925,Tag0,unknown
1545003790804,0,-353,-7.75634765625E-5,51,74,55,142192,23683,28665,16752211,16751692,20355,5041,1925,Tag0,unknown
1545003790805,0,-154,-3.3837890625E-5,51,74,55,142192,23683,28665,16752211,16751692,20355,5041,1925,Tag0,unknown
1545003790805,0,-187,-4.10888671875E-5,51,74,55,142192,23683,28665,16752211,16751692,20355,5041,1925,Tag0,unknown
1545003790805,0,-190,-4.1748046875E-5,51,74,55,142192,23683,28665,16752211,16751692,20355,5041,1925,Tag0,unknown
1545003790805,0,-197,-4.32861328125E-5,51,74,55,142192,23683,28665,16752211,16751692,20355,5041,1925,Tag0,unknown
1545003790805,0,-199,-4.3725585937499995E-5,51,74,55,142192,23683,28665,16752211,16751692,20355,5041,1925,Tag0,unknown
1545003790805,0,-182,-3.9990234375E-5,51,74,55,142192,23683,28665,16752211,16751692,20355,5041,1925,Tag0,unknown
1545003790841,0,-164,-3.6035156249999995E-5,51,74,55,142192,23683,28665,16752211,16751692,20355,5041,1925,Tag0,unknown
1545003790842,0,-162,-3.5595703125E-5,51,74,55,142192,23683,28665,16752211,16751692,20355,5041,1925,Tag0,unknown
1545003790842,0,-174,-3.8232421875E-5,51,74,55,142192,23683,28665,16752211,16751692,20355,5041,1925,Tag0,unknown
1545003790843,0,-193,-4.2407226562500005E-5,51,74,55,142192,23683,28665,16752211,16751692,20355,5041,1925,Tag0,unknown
1545003790853,0,-217,-4.76806640625E-5,51,74,55,142192,23683,28665,16752211,16751692,20355,5041,1925,Tag0,unknown
1545003790853,0,-228,-5.0097656250000005E-5,51,74,55,142192,23683,28665,16752211,16751692,20355,5041,1925,Tag0,unknown
1545003790853,0,-217,-4.76806640625E-5,51,74,55,142192,23683,28665,16752211,16751692,20355,5041,1925,Tag0,unknown
1545003790854,0,-201,-4.41650390625E-5,51,74,55,142192,23683,28665,16752211,16751692,20355,5041,1925,Tag0,unknown
1545003790854,0,-209,-4.59228515625E-5,51,74,55,142192,23683,28665,16752211,16751692,20355,5041,1925,Tag0,unknown
1545003790854,0,-229,-5.03173828125E-5,51,74,55,142192,23683,28665,16752211,16751692,20355,5041,1925,Tag0,unknown
1545003790854,0,-246,-5.4052734375E-5,51,74,55,142192,23683,28665,16752211,16751692,20355,5041,1925,Tag0,unknown
1545003790854,0,-253,-5.55908203125E-5,51,74,55,142192,23683,28665,16752211,16751692,20355,5041,1925,Tag0,unknown
1545003790868,0,-248,-5.44921875E-5,51,74,55,142192,23683,28665,16752211,16751692,20355,5041,1925,Tag0,unknown
1545003790868,0,-238,-5.229492187500001E-5,51,74,55,142192,23683,28665,16752211,16751692,20355,5041,1925,Tag0,unknown
1545003790868,0,-513,-1.127197265625E-4,51,74,55,142192,23683,28665,16752211,16751692,20355,5041,1925,Tag0,unknown
1545003790868,0,-530,-1.16455078125E-4,51,74,55,142192,23683,28665,16752211,16751692,20355,5041,1925,Tag0,unknown
1545003790868,0,-542,-1.19091796875E-4,51,74,55,142192,23683,28665,16752211,16751692,20355,5041,1925,Tag0,unknown
1545003790869,0,-555,-1.219482421875E-4,51,74,55,142192,23683,28665,16752211,16751692,20355,5041,1925,Tag0,unknown
1545003790869,0,-555,-1.219482421875E-4,51,74,55,142192,23683,28665,16752211,16751692,20355,5041,1925,Tag0,unknown
1545003790869,0,-522,-1.14697265625E-4,51,74,55,142192,23683,28665,16752211,16751692,20355,5041,1925,Tag0,unknown
1545003790870,0,-218,-4.7900390625E-5,51,74,55,142192,23683,28665,16752211,16751692,20355,5041,1925,Tag0,unknown
1545003790870,0,-186,-4.0869140625E-5,51,74,55,142192,23683,28665,16752211,16751692,20355,5041,1925,Tag0,unknown
1545003790870,0,-182,-3.9990234375E-5,51,74,55,142192,23683,28665,16752211,16751692,20355,5041,1925,Tag0,unknown
1545003790870,0,-193,-4.2407226562500005E-5,51,74,55,142192,23683,28665,16752211,16751692,20355,5041,1925,Tag0,unknown
1545003790871,0,-196,-4.306640625E-5,51,74,55,142192,23683,28665,16752211,16751692,20355,5041,1925,Tag0,unknown
1545003790871,0,-172,-3.7792968750000005E-5,51,74,55,142192,23683,28665,16752211,16751692,20355,5041,1925,Tag0,unknown
1545003790871,0,-375,-8.23974609375E-5,51,74,55,142192,23683,28665,16752211,16751692,20355,5041,1925,Tag0,unknown
1545003790871,0,-341,-7.492675781250002E-5,51,74,55,142192,23683,28665,16752211,16751692,20355,5041,1925,Tag0,unknown
1545003790871,0,-337,-7.40478515625E-5,51,74,55,142192,23683,28665,16752211,16751692,20355,5041,1925,Tag0,unknown
1545003790871,0,-329,-7.229003906250001E-5,51,74,55,142192,23683,28665,16752211,16751692,20355,5041,1925,Tag0,unknown
1545003790896,0,-310,-6.8115234375E-5,51,74,55,142192,23683,28665,16752211,16751692,20355,5041,1925,Tag0,unknown
1545003790896,0,-297,-6.525878906250001E-5,51,74,55,142192,23683,28665,16752211,16751692,20355,5041,1925,Tag0,unknown
1545003790899,0,-281,-6.17431640625E-5,51,74,55,142192,23683,28665,16752211,16751692,20355,5041,1925,Tag0,unknown
1545003790916,0,-258,-5.6689453125000004E-5,51,74,55,142192,23683,28665,16752211,16751692,20355,5041,1925,Tag0,unknown
1545003790916,0,21,4.614257812500001E-6,51,74,55,142192,23683,28665,16752211,16751692,20355,5041,1925,Tag0,unknown
1545003790916,0,39,8.5693359375E-6,51,74,55,142192,23683,28665,16752211,16751692,20355,5041,1925,Tag0,unknown
1545003790916,0,52,1.142578125E-5,51,74,55,142192,23683,28665,16752211,16751692,20355,5041,1925,Tag0,unknown
1545003790917,0,69,1.51611328125E-5,51,74,55,142192,23683,28665,16752211,16751692,20355,5041,1925,Tag0,unknown
1545003790917,0,82,1.8017578124999998E-5,51,74,55,142192,23683,28665,16752211,16751692,20355,5041,1925,Tag0,unknown
1545003790917,0,88,1.93359375E-5,51,74,55,142192,23683,28665,16752211,16751692,20355,5041,1925,Tag0,unknown
1545003790917,0,90,1.9775390625E-5,51,74,55,142192,23683,28665,16752211,16751692,20355,5041,1925,Tag0,unknown
1545003790917,0,91,1.99951171875E-5,51,74,55,142192,23683,28665,16752211,16751692,20355,5041,1925,Tag0,unknown
1545003790917,0,96,2.109375E-5,51,74,55,142192,23683,28665,16752211,16751692,20355,5041,1925,Tag0,unknown
1545003790918,0,106,2.3291015625000003E-5,51,74,55,142192,23683,28665,16752211,16751692,20355,5041,1925,Tag0,unknown
1545003790918,0,-123,-2.70263671875E-5,51,74,55,142192,23683,28665,16752211,16751692,20355,5041,1925,Tag0,unknown
1545003790918,0,-107,-2.35107421875E-5,51,74,55,142192,23683,28665,16752211,16751692,20355,5041,1925,Tag0,unknown
1545003790918,0,-117,-2.5708007812499998E-5,51,74,55,142192,23683,28665,16752211,16751692,20355,5041,1925,Tag0,unknown
1545003790919,0,-122,-2.6806640625E-5,51,74,55,142192,23683,28665,16752211,16751692,20355,5041,1925,Tag0,unknown
1545003790919,0,-118,-2.5927734375E-5,51,74,55,142192,23683,28665,16752211,16751692,20355,5041,1925,Tag0,unknown
1545003790919,0,-108,-2.3730468750000002E-5,51,74,55,142192,23683,28665,16752211,16751692,20355,5041,1925,Tag0,unknown
1545003790919,0,-102,-2.2412109374999998E-5,51,74,55,142192,23683,28665,16752211,16751692,20355,5041,1925,Tag0,unknown
1545003790919,0,-89,-1.95556640625E-5,51,74,55,142192,23683,28665,16752211,16751692,20355,5041,1925,Tag0,unknown
1545003790920,0,-71,-1.56005859375E-5,51,74,55,142192,23683,28665,16752211,16751692,20355,5041,1925,Tag0,unknown
1545003790920,0,-58,-1.2744140625E-5,51,74,55,142192,23683,28665,16752211,16751692,20355,5041,1925,Tag0,unknown
1545003790920,0,-59,-1.29638671875E-5,51,74,55,142192,23683,28665,16752211,16751692,20355,5041,1925,Tag0,unknown
1545003790920,0,-59,-1.29638671875E-5,51,74,55,142192,23683,28665,16752211,16751692,20355,5041,1925,Tag0,unknown
1545003790920,0,-57,-1.2524414062500001E-5,51,74,55,142192,23683,28665,16752211,16751692,20355,5041,1925,Tag0,unknown
1545003790935,0,-57,-1.2524414062500001E-5,51,74,55,142192,23683,28665,16752211,16751692,20355,5041,1925,Tag0,unknown
1545003790935,0,-55,-1.20849609375E-5,51,74,55,142192,23683,28665,16752211,16751692,20355,5041,1925,Tag0,unknown
1545003790938,0,-51,-1.1206054687499999E-5,51,74,55,142192,23683,28665,16752211,16751692,20355,5041,1925,Tag0,unknown
1545003790938,0,-46,-1.0107421875E-5,51,74,55,142192,23683,28665,16752211,16751692,20355,5041,1925,Tag0,unknown
1545003790939,0,-51,-1.1206054687499999E-5,51,74,55,142192,23683,28665,16752211,16751692,20355,5041,1925,Tag0,unknown
1545003790964,0,-51,-1.1206054687499999E-5,51,74,55,142192,23683,28665,16752211,16751692,20355,5041,1925,Tag0,unknown
1545003790964,0,-39,-8.5693359375E-6,51,74,55,142192,23683,28665,16752211,16751692,20355,5041,1925,Tag0,unknown
1545003790964,0,-15,-3.2958984375E-6,51,74,55,142192,23683,28665,16752211,16751692,20355,5041,1925,Tag0,unknown
1545003790967,0,-7,-1.5380859375E-6,51,74,55,142192,23683,28665,16752211,16751692,20355,5041,1925,Tag0,unknown
1545003790982,0,-11,-2.4169921875E-6,51,74,55,142192,23683,28665,16752211,16751692,20355,5041,1925,Tag0,unknown
1545003790983,0,-23,-5.0537109375E-6,51,74,55,142192,23683,28665,16752211,16751692,20355,5041,1925,Tag0,unknown
1545003790983,0,-29,-6.3720703125E-6,51,74,55,142192,23683,28665,16752211,16751692,20355,5041,1925,Tag0,unknown
1545003790983,0,-39,-8.5693359375E-6,51,74,55,142192,23683,28665,16752211,16751692,20355,5041,1925,Tag0,unknown
1545003790983,0,-47,-1.0327148437500001E-5,51,74,55,142192,23683,28665,16752211,16751692,20355,5041,1925,Tag0,unknown
1545003790984,0,-54,-1.1865234375000001E-5,51,74,55,142192,23683,28665,16752211,16751692,20355,5041,1925,Tag0,unknown
1545003790984,0,-56,-1.23046875E-5,51,74,55,142192,23683,28665,16752211,16751692,20355,5041,1925,Tag0,unknown
1545003790984,0,-62,-1.3623046875E-5,51,74,55,142192,23683,28665,16752211,16751692,20355,5041,1925,Tag0,unknown
1545003790984,0,-75,-1.64794921875E-5,51,74,55,142192,23683,28665,16752211,16751692,20355,5041,1925,Tag0,unknown
1545003790984,0,-75,-1.64794921875E-5,51,74,55,142192,23683,28665,16752211,16751692,20355,5041,1925,Tag0,unknown
1545003790984,0,-70,-1.5380859375E-5,51,74,55,142192,23683,28665,16752211,16751692,20355,5041,1925,Tag0,unknown
1545003790985,0,-75,-1.64794921875E-5,51,74,55,142192,23683,28665,16752211,16751692,20355,5041,1925,Tag0,unknown
1545003790985,0,-96,-2.109375E-5,51,74,55,142192,23683,28665,16752211,16751692,20355,5041,1925,Tag0,unknown
1545003790985,0,-112,-2.4609375E-5,51,74,55,142192,23683,28665,16752211,16751692,20355,5041,1925,Tag0,unknown
1545003790985,0,-100,-2.197265625E-5,51,74,55,142192,23683,28665,16752211,16751692,20355,5041,1925,Tag0,unknown
1545003790985,0,-80,-1.7578125E-5,51,74,55,142192,23683,28665,16752211,16751692,20355,5041,1925,Tag0,unknown
1545003790986,0,-79,-1.7358398437500003E-5,51,74,55,142192,23683,28665,16752211,16751692,20355,5041,1925,Tag0,unknown
1545003790986,0,-91,-1.99951171875E-5,51,74,55,142192,23683,28665,16752211,16751692,20355,5041,1925,Tag0,unknown
1545003790986,0,-99,-2.1752929687500003E-5,51,74,55,142192,23683,28665,16752211,16751692,20355,5041,1925,Tag0,unknown
1545003790986,0,-93,-2.04345703125E-5,51,74,55,142192,23683,28665,16752211,16751692,20355,5041,1925,Tag0,unknown
1545003790986,0,-80,-1.7578125E-5,51,74,55,142192,23683,28665,16752211,16751692,20355,5041,1925,Tag0,unknown
1545003790987,0,-70,-1.5380859375E-5,51,74,55,142192,23683,28665,16752211,16751692,20355,5041,1925,Tag0,unknown
1545003790987,0,-62,-1.3623046875E-5,51,74,55,142192,23683,28665,16752211,16751692,20355,5041,1925,Tag0,unknown
1545003790987,0,-56,-1.23046875E-5,51,74,55,142192,23683,28665,16752211,16751692,20355,5041,1925,Tag0,unknown
1545003790988,0,-46,-1.0107421875E-5,51,74,55,142192,23683,28665,16752211,16751692,20355,5041,1925,Tag0,unknown
1545003790988,0,-42,-9.228515625000002E-6,51,74,55,142192,23683,28665,16752211,16751692,20355,5041,1925,Tag0,unknown
1545003791015,0,-47,-1.0327148437500001E-5,51,74,55,142192,23683,28665,16752211,16751692,20355,5041,1925,Tag0,unknown
1545003791031,0,-61,-1.34033203125E-5,51,74,55,142192,23683,28665,16752211,16751692,20355,5041,1925,Tag0,unknown
1545003791031,0,-56,-1.23046875E-5,51,74,55,142192,23683,28665,16752211,16751692,20355,5041,1925,Tag0,unknown
1545003791032,0,-39,-8.5693359375E-6,51,74,55,142192,23683,28665,16752211,16751692,20355,5041,1925,Tag0,unknown
1545003791032,0,-44,-9.66796875E-6,51,74,55,142192,23683,28665,16752211,16751692,20355,5041,1925,Tag0,unknown
1545003791032,0,-70,-1.5380859375E-5,51,74,55,142192,23683,28665,16752211,16751692,20355,5041,1925,Tag0,unknown
1545003791032,0,-85,-1.86767578125E-5,51,74,55,142192,23683,28665,16752211,16751692,20355,5041,1925,Tag0,unknown
1545003791032,0,-76,-1.669921875E-5,51,74,55,142192,23683,28665,16752211,16751692,20355,5041,1925,Tag0,unknown
1545003791033,0,-69,-1.51611328125E-5,51,74,55,142192,23683,28665,16752211,16751692,20355,5041,1925,Tag0,unknown
1545003791033,0,-71,-1.56005859375E-5,51,74,55,142192,23683,28665,16752211,16751692,20355,5041,1925,Tag0,unknown
1545003791033,0,-78,-1.7138671875E-5,51,74,55,142192,23683,28665,16752211,16751692,20355,5041,1925,Tag0,unknown
1545003791034,0,-92,-2.021484375E-5,51,74,55,142192,23683,28665,16752211,16751692,20355,5041,1925,Tag0,unknown
1545003791034,0,-117,-2.5708007812499998E-5,51,74,55,142192,23683,28665,16752211,16751692,20355,5041,1925,Tag0,unknown
1545003791034,0,121,2.6586914062500003E-5,51,74,55,142192,23683,28665,16752211,16751692,20355,5041,1925,Tag0,unknown
1545003791034,0,117,2.5708007812499998E-5,51,74,55,142192,23683,28665,16752211,16751692,20355,5041,1925,Tag0,unknown
1545003791034,0,107,2.35107421875E-5,51,74,55,142192,23683,28665,16752211,16751692,20355,5041,1925,Tag0,unknown
1545003791035,0,98,2.1533203125E-5,51,74,55,142192,23683,28665,16752211,16751692,20355,5041,1925,Tag0,unknown
1545003791035,0,90,1.9775390625E-5,51,74,55,142192,23683,28665,16752211,16751692,20355,5041,1925,Tag0,unknown
1545003791035,0,99,2.1752929687500003E-5,51,74,55,142192,23683,28665,16752211,16751692,20355,5041,1925,Tag0,unknown
1545003791036,0,122,2.6806640625E-5,51,74,55,142192,23683,28665,16752211,16751692,20355,5041,1925,Tag0,unknown
1545003791036,0,120,2.63671875E-5,51,74,55,142192,23683,28665,16752211,16751692,20355,5041,1925,Tag0,unknown
1545003791036,0,99,2.1752929687500003E-5,51,74,55,142192,23683,28665,16752211,16751692,20355,5041,1925,Tag0,unknown
1545003791036,0,74,1.6259765625E-5,51,74,55,142192,23683,28665,16752211,16751692,20355,5041,1925,Tag0,unknown
1545003791036,0,45,9.8876953125E-6,51,74,55,142192,23683,28665,16752211,16751692,20355,5041,1925,Tag0,unknown
1545003791037,0,20,4.39453125E-6,51,74,55,142192,23683,28665,16752211,16751692,20355,5041,1925,Tag0,unknown
1545003791049,0,21,4.614257812500001E-6,51,74,55,142192,23683,28665,16752211,16751692,20355,5041,1925,Tag0,unknown
1545003791049,0,66,1.4501953125E-5,51,74,55,142192,23683,28665,16752211,16751692,20355,5041,1925,Tag0,unknown
1545003791049,0,123,2.70263671875E-5,51,74,55,142192,23683,28665,16752211,16751692,20355,5041,1925,Tag0,unknown
1545003791052,0,-115,-2.52685546875E-5,51,74,55,142192,23683,28665,16752211,16751692,20355,5041,1925,Tag0,unknown
1545003791053,0,118,2.5927734375E-5,51,74,55,142192,23683,28665,16752211,16751692,20355,5041,1925,Tag0,unknown
1545003791053,0,112,2.4609375E-5,51,74,55,142192,23683,28665,16752211,16751692,20355,5041,1925,Tag0,unknown
1545003791054,0,-127,-2.79052734375E-5,51,74,55,142192,23683,28665,16752211,16751692,20355,5041,1925,Tag0,unknown
1545003791080,0,-119,-2.6147460937500004E-5,51,74,55,142192,23683,28665,16752211,16751692,20355,5041,1925,Tag0,unknown
1545003791081,0,-124,-2.724609375E-5,51,74,55,142192,23683,28665,16752211,16751692,20355,5041,1925,Tag0,unknown
1545003791081,0,116,2.548828125E-5,51,74,55,142192,23683,28665,16752211,16751692,20355,5041,1925,Tag0,unknown
1545003791101,0,104,2.28515625E-5,51,74,55,142192,23683,28665,16752211,16751692,20355,5041,1925,Tag0,unknown
1545003791102,0,106,2.3291015625000003E-5,51,74,55,142192,23683,28665,16752211,16751692,20355,5041,1925,Tag0,unknown
1545003791102,0,105,2.30712890625E-5,51,74,55,142192,23683,28665,16752211,16751692,20355,5041,1925,Tag0,unknown
1545003791102,0,86,1.8896484375000003E-5,51,74,55,142192,23683,28665,16752211,16751692,20355,5041,1925,Tag0,unknown
1545003791102,0,72,1.58203125E-5,51,74,55,142192,23683,28665,16752211,16751692,20355,5041,1925,Tag0,unknown
1545003791103,0,73,1.6040039062500002E-5,51,74,55,142192,23683,28665,16752211,16751692,20355,5041,1925,Tag0,unknown
1545003791104,0,82,1.8017578124999998E-5,51,74,55,142192,23683,28665,16752211,16751692,20355,5041,1925,Tag0,unknown
1545003791105,0,89,1.95556640625E-5,51,74,55,142192,23683,28665,16752211,16751692,20355,5041,1925,Tag0,unknown
1545003791105,0,96,2.109375E-5,51,74,55,142192,23683,28665,16752211,16751692,20355,5041,1925,Tag0,unknown
1545003791106,0,104,2.28515625E-5,51,74,55,142192,23683,28665,16752211,16751692,20355,5041,1925,Tag0,unknown
1545003791106,0,89,1.95556640625E-5,51,74,55,142192,23683,28665,16752211,16751692,20355,5041,1925,Tag0,unknown
1545003791107,0,65,1.42822265625E-5,51,74,55,142192,23683,28665,16752211,16751692,20355,5041,1925,Tag0,unknown
1545003791107,0,49,1.07666015625E-5,51,74,55,142192,23683,28665,16752211,16751692,20355,5041,1925,Tag0,unknown
1545003791107,0,35,7.6904296875E-6,51,74,55,142192,23683,28665,16752211,16751692,20355,5041,1925,Tag0,unknown
1545003791107,0,11,2.4169921875E-6,51,74,55,142192,23683,28665,16752211,16751692,20355,5041,1925,Tag0,unknown
1545003791107,0,0,0.0,51,74,55,142192,23683,28665,16752211,16751692,20355,5041,1925,Tag0,unknown
1545003791108,0,12,2.63671875E-6,51,74,55,142192,23683,28665,16752211,16751692,20355,5041,1925,Tag0,unknown
1545003791108,0,39,8.5693359375E-6,51,74,55,142192,23683,28665,16752211,16751692,20355,5041,1925,Tag0,unknown
1545003791108,0,56,1.23046875E-5,51,74,55,142192,23683,28665,16752211,16751692,20355,5041,1925,Tag0,unknown
1545003791108,0,56,1.23046875E-5,51,74,55,142192,23683,28665,16752211,16751692,20355,5041,1925,Tag0,unknown
1545003791108,0,42,9.228515625000002E-6,51,74,55,142192,23683,28665,16752211,16751692,20355,5041,1925,Tag0,unknown
1545003791109,0,43,9.448242187500001E-6,51,74,55,142192,23683,28665,16752211,16751692,20355,5041,1925,Tag0,unknown
1545003791109,0,52,1.142578125E-5,51,74,55,142192,23683,28665,16752211,16751692,20355,5041,1925,Tag0,unknown
1545003791109,0,59,1.29638671875E-5,51,74,55,142192,23683,28665,16752211,16751692,20355,5041,1925,Tag0,unknown
1545003791112,0,73,1.6040039062500002E-5,51,74,55,142192,23683,28665,16752211,16751692,20355,5041,1925,Tag0,unknown
1545003791115,0,80,1.7578125E-5,51,74,55,142192,23683,28665,16752211,16751692,20355,5041,1925,Tag0,unknown
1545003791115,0,90,1.9775390625E-5,51,74,55,142192,23683,28665,16752211,16751692,20355,5041,1925,Tag0,unknown
1545003791135,0,107,2.35107421875E-5,51,74,55,142192,23683,28665,16752211,16751692,20355,5041,1925,Tag0,unknown
1545003791152,0,123,2.70263671875E-5,51,74,55,142192,23683,28665,16752211,16751692,20355,5041,1925,Tag0,unknown
1545003791152,0,-120,-2.63671875E-5,51,74,55,142192,23683,28665,16752211,16751692,20355,5041,1925,Tag0,unknown
1545003791152,0,-111,-2.43896484375E-5,51,74,55,142192,23683,28665,16752211,16751692,20355,5041,1925,Tag0,unknown
1545003791153,0,-125,-2.74658203125E-5,51,74,55,142192,23683,28665,16752211,16751692,20355,5041,1925,Tag0,unknown
1545003791153,0,104,2.28515625E-5,51,74,55,142192,23683,28665,16752211,16751692,20355,5041,1925,Tag0,unknown
1545003791153,0,87,1.91162109375E-5,51,74,55,142192,23683,28665,16752211,16751692,20355,5041,1925,Tag0,unknown
1545003791153,0,87,1.91162109375E-5,51,74,55,142192,23683,28665,16752211,16751692,20355,5041,1925,Tag0,unknown
1545003791154,0,96,2.109375E-5,51,74,55,142192,23683,28665,16752211,16751692,20355,5041,1925,Tag0,unknown
1545003791154,0,93,2.04345703125E-5,51,74,55,142192,23683,28665,16752211,16751692,20355,5041,1925,Tag0,unknown
1545003791155,0,70,1.5380859375E-5,51,74,55,142192,23683,28665,16752211,16751692,20355,5041,1925,Tag0,unknown
1545003791155,0,49,1.07666015625E-5,51,74,55,142192,23683,28665,16752211,16751692,20355,5041,1925,Tag0,unknown
1545003791155,0,44,9.66796875E-6,51,74,55,142192,23683,28665,16752211,16751692,20355,5041,1925,Tag0,unknown
1545003791155,0,59,1.29638671875E-5,51,74,55,142192,23683,28665,16752211,16751692,20355,5041,1925,Tag0,unknown
1545003791155,0,67,1.4721679687500002E-5,51,74,55,142192,23683,28665,16752211,16751692,20355,5041,1925,Tag0,unknown
1545003791155,0,51,1.1206054687499999E-5,51,74,55,142192,23683,28665,16752211,16751692,20355,5041,1925,Tag0,unknown
1545003791156,0,28,6.15234375E-6,51,74,55,142192,23683,28665,16752211,16751692,20355,5041,1925,Tag0,unknown
1545003791156,0,21,4.614257812500001E-6,51,74,55,142192,23683,28665,16752211,16751692,20355,5041,1925,Tag0,unknown
1545003791156,0,25,5.4931640625E-6,51,74,55,142192,23683,28665,16752211,16751692,20355,5041,1925,Tag0,unknown
1545003791156,0,28,6.15234375E-6,51,74,55,142192,23683,28665,16752211,16751692,20355,5041,1925,Tag0,unknown
1545003791156,0,32,7.03125E-6,51,74,55,142192,23683,28665,16752211,16751692,20355,5041,1925,Tag0,unknown
1545003791157,0,41,9.008789062499999E-6,51,74,55,142192,23683,28665,16752211,16751692,20355,5041,1925,Tag0,unknown
1545003791157,0,51,1.1206054687499999E-5,51,74,55,142192,23683,28665,16752211,16751692,20355,5041,1925,Tag0,unknown
1545003791157,0,37,8.1298828125E-6,51,74,55,142192,23683,28665,16752211,16751692,20355,5041,1925,Tag0,unknown
1545003791168,0,28,6.15234375E-6,51,74,55,142192,23683,28665,16752211,16751692,20355,5041,1925,Tag0,unknown
1545003791168,0,37,8.1298828125E-6,51,74,55,142192,23683,28665,16752211,16751692,20355,5041,1925,Tag0,unknown
1545003791168,0,53,1.1645507812500002E-5,51,74,55,142192,23683,28665,16752211,16751692,20355,5041,1925,Tag0,unknown
1545003791168,0,66,1.4501953125E-5,51,74,55,142192,23683,28665,16752211,16751692,20355,5041,1925,Tag0,unknown
1545003791169,0,60,1.318359375E-5,51,74,55,142192,23683,28665,16752211,16751692,20355,5041,1925,Tag0,unknown
1545003791169,0,53,1.1645507812500002E-5,51,74,55,142192,23683,28665,16752211,16751692,20355,5041,1925,Tag0,unknown
1545003791169,0,59,1.29638671875E-5,51,74,55,142192,23683,28665,16752211,16751692,20355,5041,1925,Tag0,unknown
1545003791208,0,90,1.9775390625E-5,51,74,55,142192,23683,28665,16752211,16751692,20355,5041,1925,Tag0,unknown
1545003791208,0,-127,-2.79052734375E-5,51,74,55,142192,23683,28665,16752211,16751692,20355,5041,1925,Tag0,unknown
1545003791208,0,-104,-2.28515625E-5,51,74,55,142192,23683,28665,16752211,16751692,20355,5041,1925,Tag0,unknown
1545003791208,0,-92,-2.021484375E-5,51,74,55,142192,23683,28665,16752211,16751692,20355,5041,1925,Tag0,unknown
1545003791208,0,-96,-2.109375E-5,51,74,55,142192,23683,28665,16752211,16751692,20355,5041,1925,Tag0,unknown
1545003791208,0,-111,-2.43896484375E-5,51,74,55,142192,23683,28665,16752211,16751692,20355,5041,1925,Tag0,unknown
1545003791209,0,-117,-2.5708007812499998E-5,51,74,55,142192,23683,28665,16752211,16751692,20355,5041,1925,Tag0,unknown
1545003791209,0,-107,-2.35107421875E-5,51,74,55,142192,23683,28665,16752211,16751692,20355,5041,1925,Tag0,unknown
1545003791209,0,-104,-2.28515625E-5,51,74,55,142192,23683,28665,16752211,16751692,20355,5041,1925,Tag0,unknown
1545003791211,0,-110,-2.4169921875E-5,51,74,55,142192,23683,28665,16752211,16751692,20355,5041,1925,Tag0,unknown
1545003791211,0,-126,-2.7685546875E-5,51,74,55,142192,23683,28665,16752211,16751692,20355,5041,1925,Tag0,unknown
1545003791211,0,107,2.35107421875E-5,51,74,55,142192,23683,28665,16752211,16751692,20355,5041,1925,Tag0,unknown
1545003791211,0,85,1.86767578125E-5,51,74,55,142192,23683,28665,16752211,16751692,20355,5041,1925,Tag0,unknown
1545003791212,0,53,1.1645507812500002E-5,51,74,55,142192,23683,28665,16752211,16751692,20355,5041,1925,Tag0,unknown
1545003791212,0,23,5.0537109375E-6,51,74,55,142192,23683,28665,16752211,16751692,20355,5041,1925,Tag0,unknown
1545003791212,0,9,1.9775390625E-6,51,74,55,142192,23683,28665,16752211,16751692,20355,5041,1925,Tag0,unknown
1545003791212,0,22,4.833984375E-6,51,74,55,142192,23683,28665,16752211,16751692,20355,5041,1925,Tag0,unknown
1545003791212,0,51,1.1206054687499999E-5,51,74,55,142192,23683,28665,16752211,16751692,20355,5041,1925,Tag0,unknown
1545003791213,0,72,1.58203125E-5,51,74,55,142192,23683,28665,16752211,16751692,20355,5041,1925,Tag0,unknown
1545003791215,0,72,1.58203125E-5,51,74,55,142192,23683,28665,16752211,16751692,20355,5041,1925,Tag0,unknown
1545003791216,0,60,1.318359375E-5,51,74,55,142192,23683,28665,16752211,16751692,20355,5041,1925,Tag0,unknown
1545003791216,0,61,1.34033203125E-5,51,74,55,142192,23683,28665,16752211,16751692,20355,5041,1925,Tag0,unknown
1545003791216,0,64,1.40625E-5,51,74,55,142192,23683,28665,16752211,16751692,20355,5041,1925,Tag0,unknown
1545003791216,0,50,1.0986328125E-5,51,74,55,142192,23683,28665,16752211,16751692,20355,5041,1925,Tag0,unknown
1545003791232,0,42,9.228515625000002E-6,51,74,55,142192,23683,28665,16752211,16751692,20355,5041,1925,Tag0,unknown
1545003791232,0,56,1.23046875E-5,51,74,55,142192,23683,28665,16752211,16751692,20355,5041,1925,Tag0,unknown
1545003791232,0,74,1.6259765625E-5,51,74,55,142192,23683,28665,16752211,16751692,20355,5041,1925,Tag0,unknown
1545003791233,0,85,1.86767578125E-5,51,74,55,142192,23683,28665,16752211,16751692,20355,5041,1925,Tag0,unknown
1545003791233,0,83,1.82373046875E-5,51,74,55,142192,23683,28665,16752211,16751692,20355,5041,1925,Tag0,unknown
1545003791233,0,91,1.99951171875E-5,51,74,55,142192,23683,28665,16752211,16751692,20355,5041,1925,Tag0,unknown
1545003791234,0,90,1.9775390625E-5,51,74,55,142192,23683,28665,16752211,16751692,20355,5041,1925,Tag0,unknown
1545003791255,0,76,1.669921875E-5,51,74,55,142192,23683,28665,16752211,16751692,20355,5041,1925,Tag0,unknown
1545003791268,0,58,1.2744140625E-5,51,74,55,142192,23683,28665,16752211,16751692,20355,5041,1925,Tag0,unknown
1545003791268,0,22,4.833984375E-6,51,74,55,142192,23683,28665,16752211,16751692,20355,5041,1925,Tag0,unknown
1545003791268,0,1,2.197265625E-7,51,74,55,142192,23683,28665,16752211,16751692,20355,5041,1925,Tag0,unknown
1545003791269,0,22,4.833984375E-6,51,74,55,142192,23683,28665,16752211,16751692,20355,5041,1925,Tag0,unknown
1545003791269,0,76,1.669921875E-5,51,74,55,142192,23683,28665,16752211,16751692,20355,5041,1925,Tag0,unknown
1545003791269,0,-124,-2.724609375E-5,51,74,55,142192,23683,28665,16752211,16751692,20355,5041,1925,Tag0,unknown
1545003791269,0,-86,-1.8896484375000003E-5,51,74,55,142192,23683,28665,16752211,16751692,20355,5041,1925,Tag0,unknown
1545003791269,0,-72,-1.58203125E-5,51,74,55,142192,23683,28665,16752211,16751692,20355,5041,1925,Tag0,unknown
1545003791270,0,-68,-1.4941406250000001E-5,51,74,55,142192,23683,28665,16752211,16751692,20355,5041,1925,Tag0,unknown
1545003791270,0,-44,-9.66796875E-6,51,74,55,142192,23683,28665,16752211,16751692,20355,5041,1925,Tag0,unknown
1545003791270,0,-10,-2.197265625E-6,51,74,55,142192,23683,28665,16752211,16751692,20355,5041,1925,Tag0,unknown
1545003791270,0,295,6.48193359375E-5,51,74,55,142192,23683,28665,16752211,16751692,20355,5041,1925,Tag0,unknown
1545003791270,0,333,7.316894531249999E-5,51,74,55,142192,23683,28665,16752211,16751692,20355,5041,1925,Tag0,unknown
1545003791271,0,344,7.558593750000001E-5,51,74,55,142192,23683,28665,16752211,16751692,20355,5041,1925,Tag0,unknown
1545003791271,0,344,7.558593750000001E-5,51,74,55,142192,23683,28665,16752211,16751692,20355,5041,1925,Tag0,unknown
1545003791271,0,349,7.668457031250001E-5,51,74,55,142192,23683,28665,16752211,16751692,20355,5041,1925,Tag0,unknown
1545003791271,0,374,8.2177734375E-5,51,74,55,142192,23683,28665,16752211,16751692,20355,5041,1925,Tag0,unknown
1545003791271,0,146,3.2080078125000004E-5,51,74,55,142192,23683,28665,16752211,16751692,20355,5041,1925,Tag0,unknown
1545003791272,0,182,3.9990234375E-5,51,74,55,142192,23683,28665,16752211,16751692,20355,5041,1925,Tag0,unknown
1545003791272,0,228,5.0097656250000005E-5,51,74,55,142192,23683,28665,16752211,16751692,20355,5041,1925,Tag0,unknown
1545003791272,0,537,1.179931640625E-4,51,74,55,142192,23683,28665,16752211,16751692,20355,5041,1925,Tag0,unknown
1545003791284,0,580,1.2744140625E-4,51,74,55,142192,23683,28665,16752211,16751692,20355,5041,1925,Tag0,unknown
1545003791284,0,600,1.318359375E-4,51,74,55,142192,23683,28665,16752211,16751692,20355,5041,1925,Tag0,unknown
1545003791287,0,616,1.353515625E-4,51,74,55,142192,23683,28665,16752211,16751692,20355,5041,1925,Tag0,unknown
1545003791324,0,633,1.3908691406250002E-4,51,74,55,142192,23683,28665,16752211,16751692,20355,5041,1925,Tag0,unknown
1545003791324,0,404,8.876953125000001E-5,51,74,55,142192,23683,28665,16752211,16751692,20355,5041,1925,Tag0,unknown
1545003791324,0,427,9.382324218750001E-5,51,74,55,142192,23683,28665,16752211,16751692,20355,5041,1925,Tag0,unknown
1545003791324,0,442,9.7119140625E-5,51,74,55,142192,23683,28665,16752211,16751692,20355,5041,1925,Tag0,unknown
1545003791324,0,443,9.73388671875E-5,51,74,55,142192,23683,28665,16752211,16751692,20355,5041,1925,Tag0,unknown
1545003791325,0,435,9.55810546875E-5,51,74,55,142192,23683,28665,16752211,16751692,20355,5041,1925,Tag0,unknown
1545003791325,0,410,9.0087890625E-5,51,74,55,142192,23683,28665,16752211,16751692,20355,5041,1925,Tag0,unknown
1545003791334,0,401,8.811035156250001E-5,51,74,55,142192,23683,28665,16752211,16751692,20355,5041,1925,Tag0,unknown
1545003791334,0,407,8.94287109375E-5,51,74,55,142192,23683,28665,16752211,16751692,20355,5041,1925,Tag0,unknown
1545003791335,0,425,9.33837890625E-5,51,74,55,142192,23683,28665,16752211,16751692,20355,5041,1925,Tag0,unknown
1545003791335,0,425,9.33837890625E-5,51,74,55,142192,23683,28665,16752211,16751692,20355,5041,1925,Tag0,unknown
1545003791336,0,394,8.6572265625E-5,51,74,55,142192,23683,28665,16752211,16751692,20355,5041,1925,Tag0,unknown
1545003791336,0,601,1.3205566406249998E-4,51,74,55,142192,23683,28665,16752211,16751692,20355,5041,1925,Tag0,unknown
1545003791336,0,572,1.2568359375E-4,51,74,55,142192,23683,28665,16752211,16751692,20355,5041,1925,Tag0,unknown
1545003791336,0,569,1.250244140625E-4,51,74,55,142192,23683,28665,16752211,16751692,20355,5041,1925,Tag0,unknown
1545003791348,0,579,1.272216796875E-4,51,74,55,142192,23683,28665,16752211,16751692,20355,5041,1925,Tag0,unknown
1545003791348,0,593,1.3029785156250002E-4,51,74,55,142192,23683,28665,16752211,16751692,20355,5041,1925,Tag0,unknown
1545003791348,0,592,1.30078125E-4,51,74,55,142192,23683,28665,16752211,16751692,20355,5041,1925,Tag0,unknown
1545003791349,0,562,1.23486328125E-4,51,74,55,142192,23683,28665,16752211,16751692,20355,5041,1925,Tag0,unknown
1545003791349,0,522,1.14697265625E-4,51,74,55,142192,23683,28665,16752211,16751692,20355,5041,1925,Tag0,unknown
1545003791349,0,236,5.185546875E-5,51,74,55,142192,23683,28665,16752211,16751692,20355,5041,1925,Tag0,unknown
1545003791349,0,218,4.7900390625E-5,51,74,55,142192,23683,28665,16752211,16751692,20355,5041,1925,Tag0,unknown
1545003791350,0,189,4.15283203125E-5,51,74,55,142192,23683,28665,16752211,16751692,20355,5041,1925,Tag0,unknown
1545003791350,0,150,3.2958984375E-5,51,74,55,142192,23683,28665,16752211,16751692,20355,5041,1925,Tag0,unknown
1545003791350,0,379,8.32763671875E-5,51,74,55,142192,23683,28665,16752211,16751692,20355,5041,1925,Tag0,unknown
1545003791350,0,380,8.349609375E-5,51,74,55,142192,23683,28665,16752211,16751692,20355,5041,1925,Tag0,unknown
1545003791351,0,139,3.0541992187500004E-5,51,74,55,142192,23683,28665,16752211,16751692,20355,5041,1925,Tag0,unknown
1545003791351,0,149,3.27392578125E-5,51,74,55,142192,23683,28665,16752211,16751692,20355,5041,1925,Tag0,unknown
1545003791351,0,129,2.8344726562500002E-5,51,74,55,142192,23683,28665,16752211,16751692,20355,5041,1925,Tag0,unknown
1545003791351,0,355,7.80029296875E-5,51,74,55,142192,23683,28665,16752211,16751692,20355,5041,1925,Tag0,unknown
1545003791351,0,324,7.119140625E-5,51,74,55,142192,23683,28665,16752211,16751692,20355,5041,1925,Tag0,unknown
1545003791351,0,304,6.6796875E-5,51,74,55,142192,23683,28665,16752211,16751692,20355,5041,1925,Tag0,unknown
1545003791352,0,304,6.6796875E-5,51,74,55,142192,23683,28665,16752211,16751692,20355,5041,1925,Tag0,unknown
1545003791352,0,295,6.48193359375E-5,51,74,55,142192,23683,28665,16752211,16751692,20355,5041,1925,Tag0,unknown
1545003791352,0,256,5.625E-5,51,74,55,142192,23683,28665,16752211,16751692,20355,5041,1925,Tag0,unknown
1545003791352,0,-43,-9.448242187500001E-6,51,74,55,142192,23683,28665,16752211,16751692,20355,5041,1925,Tag0,unknown
1545003791378,0,-57,-1.2524414062500001E-5,51,74,55,142192,23683,28665,16752211,16751692,20355,5041,1925,Tag0,unknown
1545003791382,0,-51,-1.1206054687499999E-5,51,74,55,142192,23683,28665,16752211,16751692,20355,5041,1925,Tag0,unknown
1545003791382,0,-47,-1.0327148437500001E-5,51,74,55,142192,23683,28665,16752211,16751692,20355,5041,1925,Tag0,unknown
1545003791382,0,-67,-1.4721679687500002E-5,51,74,55,142192,23683,28665,16752211,16751692,20355,5041,1925,Tag0,unknown
1545003791401,0,-102,-2.2412109374999998E-5,51,74,55,142192,23683,28665,16752211,16751692,20355,5041,1925,Tag0,unknown
1545003791402,0,101,2.2192382812500002E-5,51,74,55,142192,23683,28665,16752211,16751692,20355,5041,1925,Tag0,unknown
1545003791402,0,48,1.0546875E-5,51,74,55,142192,23683,28665,16752211,16751692,20355,5041,1925,Tag0,unknown
1545003791402,0,10,2.197265625E-6,51,74,55,142192,23683,28665,16752211,16751692,20355,5041,1925,Tag0,unknown
1545003791402,0,6,1.318359375E-6,51,74,55,142192,23683,28665,16752211,16751692,20355,5041,1925,Tag0,unknown
1545003791403,0,8,1.7578125E-6,51,74,55,142192,23683,28665,16752211,16751692,20355,5041,1925,Tag0,unknown
1545003791405,0,-277,-6.0864257812500005E-5,51,74,55,142192,23683,28665,16752211,16751692,20355,5041,1925,Tag0,unknown
1545003791406,0,-333,-7.316894531249999E-5,51,74,55,142192,23683,28665,16752211,16751692,20355,5041,1925,Tag0,unknown
1545003791406,0,-381,-8.371582031250001E-5,51,74,55,142192,23683,28665,16752211,16751692,20355,5041,1925,Tag0,unknown
1545003791406,0,-382,-8.3935546875E-5,51,74,55,142192,23683,28665,16752211,16751692,20355,5041,1925,Tag0,unknown
1545003791406,0,-344,-7.558593750000001E-5,51,74,55,142192,23683,28665,16752211,16751692,20355,5041,1925,Tag0,unknown
1545003791407,0,-325,-7.14111328125E-5,51,74,55,142192,23683,28665,16752211,16751692,20355,5041,1925,Tag0,unknown
1545003791407,0,-362,-7.954101562500001E-5,51,74,55,142192,23683,28665,16752211,16751692,20355,5041,1925,Tag0,unknown
1545003791407,0,-157,-3.44970703125E-5,51,74,55,142192,23683,28665,16752211,16751692,20355,5041,1925,Tag0,unknown
1545003791407,0,-172,-3.7792968750000005E-5,51,74,55,142192,23683,28665,16752211,16751692,20355,5041,1925,Tag0,unknown
1545003791407,0,-173,-3.80126953125E-5,51,74,55,142192,23683,28665,16752211,16751692,20355,5041,1925,Tag0,unknown
1545003791408,0,-185,-4.06494140625E-5,51,74,55,142192,23683,28665,16752211,16751692,20355,5041,1925,Tag0,unknown
1545003791408,0,-199,-4.3725585937499995E-5,51,74,55,142192,23683,28665,16752211,16751692,20355,5041,1925,Tag0,unknown
1545003791408,0,-214,-4.7021484375E-5,51,74,55,142192,23683,28665,16752211,16751692,20355,5041,1925,Tag0,unknown
1545003791408,0,-233,-5.1196289062500006E-5,51,74,55,142192,23683,28665,16752211,16751692,20355,5041,1925,Tag0,unknown
1545003791408,0,-246,-5.4052734375E-5,51,74,55,142192,23683,28665,16752211,16751692,20355,5041,1925,Tag0,unknown
1545003791409,0,-252,-5.537109375E-5,51,74,55,142192,23683,28665,16752211,16751692,20355,5041,1925,Tag0,unknown
1545003791409,0,-516,-1.1337890625000001E-4,51,74,55,142192,23683,28665,16752211,16751692,20355,5041,1925,Tag0,unknown
1545003791409,0,-250,-5.4931640625E-5,51,74,55,142192,23683,28665,16752211,16751692,20355,5041,1925,Tag0,unknown
1545003791416,0,-215,-4.72412109375E-5,51,74,55,142192,23683,28665,16752211,16751692,20355,5041,1925,Tag0,unknown
1545003791416,0,-183,-4.02099609375E-5,51,74,55,142192,23683,28665,16752211,16751692,20355,5041,1925,Tag0,unknown
1545003791416,0,-189,-4.15283203125E-5,51,74,55,142192,23683,28665,16752211,16751692,20355,5041,1925,Tag0,unknown
1545003791463,0,-246,-5.4052734375E-5,51,74,55,142192,23683,28665,16752211,16751692,20355,5041,1925,Tag0,unknown
1545003791464,0,-556,-1.2216796875000002E-4,51,74,55,142192,23683,28665,16752211,16751692,20355,5041,1925,Tag0,unknown
1545003791464,0,-563,-1.237060546875E-4,51,74,55,142192,23683,28665,16752211,16751692,20355,5041,1925,Tag0,unknown
1545003791464,0,-538,-1.1821289062499999E-4,51,74,55,142192,23683,28665,16752211,16751692,20355,5041,1925,Tag0,unknown
1545003791464,0,-514,-1.12939453125E-4,51,74,55,142192,23683,28665,16752211,16751692,20355,5041,1925,Tag0,unknown
1545003791465,0,-514,-1.12939453125E-4,51,74,55,142192,23683,28665,16752211,16751692,20355,5041,1925,Tag0,unknown
1545003791465,0,-535,-1.175537109375E-4,51,74,55,142192,23683,28665,16752211,16751692,20355,5041,1925,Tag0,unknown
1545003791465,0,-570,-1.25244140625E-4,51,74,55,142192,23683,28665,16752211,16751692,20355,5041,1925,Tag0,unknown
1545003791465,0,-599,-1.316162109375E-4,51,74,55,142192,23683,28665,16752211,16751692,20355,5041,1925,Tag0,unknown
1545003791465,0,-598,-1.31396484375E-4,51,74,55,142192,23683,28665,16752211,16751692,20355,5041,1925,Tag0,unknown
1545003791465,0,-589,-1.294189453125E-4,51,74,55,142192,23683,28665,16752211,16751692,20355,5041,1925,Tag0,unknown
1545003791466,0,-596,-1.3095703125E-4,51,74,55,142192,23683,28665,16752211,16751692,20355,5041,1925,Tag0,unknown
1545003791466,0,-613,-1.3469238281250002E-4,51,74,55,142192,23683,28665,16752211,16751692,20355,5041,1925,Tag0,unknown
1545003791468,0,-627,-1.377685546875E-4,47,43,55,76422,77251,604,6973,14355,5857,787,1346,Tag0,unknown
1545003791468,0,-622,-1.3666992187500002E-4,47,43,55,76422,77251,604,6973,14355,5857,787,1346,Tag0,unknown
1545003791502,0,-626,-1.37548828125E-4,47,43,55,76422,77251,604,6973,14355,5857,787,1346,Tag0,unknown
1545003791515,0,-633,-1.3908691406250002E-4,47,43,55,76422,77251,604,6973,14355,5857,787,1346,Tag0,unknown
1545003791515,0,-388,-8.525390625E-5,47,43,55,76422,77251,604,6973,14355,5857,787,1346,Tag0,unknown
1545003791515,0,-395,-8.67919921875E-5,47,43,55,76422,77251,604,6973,14355,5857,787,1346,Tag0,unknown
1545003791516,0,-403,-8.854980468749999E-5,47,43,55,76422,77251,604,6973,14355,5857,787,1346,Tag0,unknown
1545003791516,0,-417,-9.16259765625E-5,47,43,55,76422,77251,604,6973,14355,5857,787,1346,Tag0,unknown
1545003791516,0,-424,-9.316406250000001E-5,47,43,55,76422,77251,604,6973,14355,5857,787,1346,Tag0,unknown
1545003791516,0,-411,-9.03076171875E-5,47,43,55,76422,77251,604,6973,14355,5857,787,1346,Tag0,unknown
1545003791517,0,-389,-8.54736328125E-5,47,43,55,76422,77251,604,6973,14355,5857,787,1346,Tag0,unknown
1545003791517,0,-631,-1.386474609375E-4,47,43,55,76422,77251,604,6973,14355,5857,787,1346,Tag0,unknown
1545003791517,0,-635,-1.395263671875E-4,47,43,55,76422,77251,604,6973,14355,5857,787,1346,Tag0,unknown
1545003791517,0,-395,-8.67919921875E-5,47,43,55,76422,77251,604,6973,14355,5857,787,1346,Tag0,unknown
1545003791518,0,-404,-8.876953125000001E-5,47,43,55,76422,77251,604,6973,14355,5857,787,1346,Tag0,unknown
1545003791518,0,-391,-8.591308593750001E-5,47,43,55,76422,77251,604,6973,14355,5857,787,1346,Tag0,unknown
1545003791518,0,-634,-1.39306640625E-4,47,43,55,76422,77251,604,6973,14355,5857,787,1346,Tag0,unknown
1545003791518,0,-385,-8.45947265625E-5,47,43,55,76422,77251,604,6973,14355,5857,787,1346,Tag0,unknown
1545003791519,0,-392,-8.61328125E-5,47,43,55,76422,77251,604,6973,14355,5857,787,1346,Tag0,unknown
1545003791519,0,-387,-8.50341796875E-5,47,43,55,76422,77251,604,6973,14355,5857,787,1346,Tag0,unknown
1545003791519,0,-626,-1.37548828125E-4,47,43,55,76422,77251,604,6973,14355,5857,787,1346,Tag0,unknown
1545003791519,0,-604,-1.3271484375E-4,47,43,55,76422,77251,604,6973,14355,5857,787,1346,Tag0,unknown
1545003791520,0,-589,-1.294189453125E-4,47,43,55,76422,77251,604,6973,14355,5857,787,1346,Tag0,unknown
1545003791520,0,-597,-1.3117675781250003E-4,47,43,55,76422,77251,604,6973,14355,5857,787,1346,Tag0,unknown
1545003791520,0,-613,-1.3469238281250002E-4,47,43,55,76422,77251,604,6973,14355,5857,787,1346,Tag0,unknown
1545003791520,0,-616,-1.353515625E-4,47,43,55,76422,77251,604,6973,14355,5857,787,1346,Tag0,unknown
1545003791520,0,-609,-1.338134765625E-4,47,43,55,76422,77251,604,6973,14355,5857,787,1346,Tag0,unknown
1545003791521,0,-604,-1.3271484375E-4,47,43,55,76422,77251,604,6973,14355,5857,787,1346,Tag0,unknown
1545003791521,0,-604,-1.3271484375E-4,47,43,55,76422,77251,604,6973,14355,5857,787,1346,Tag0,unknown
1545003791521,0,-605,-1.329345703125E-4,47,43,55,76422,77251,604,6973,14355,5857,787,1346,Tag0,unknown
1545003791521,0,-599,-1.316162109375E-4,47,43,55,76422,77251,604,6973,14355,5857,787,1346,Tag0,unknown
1545003791521,0,-585,-1.285400390625E-4,47,43,55,76422,77251,604,6973,14355,5857,787,1346,Tag0,unknown
1545003791531,0,-580,-1.2744140625E-4,47,43,55,76422,77251,604,6973,14355,5857,787,1346,Tag0,unknown
1545003791532,0,-570,-1.25244140625E-4,47,43,55,76422,77251,604,6973,14355,5857,787,1346,Tag0,unknown
1545003791532,0,-561,-1.232666015625E-4,47,43,55,76422,77251,604,6973,14355,5857,787,1346,Tag0,unknown
1545003791532,0,-553,-1.215087890625E-4,47,43,55,76422,77251,604,6973,14355,5857,787,1346,Tag0,unknown
1545003791532,0,-541,-1.1887207031250001E-4,47,43,55,76422,77251,604,6973,14355,5857,787,1346,Tag0,unknown
1545003791532,0,-522,-1.14697265625E-4,47,43,55,76422,77251,604,6973,14355,5857,787,1346,Tag0,unknown
1545003791533,0,-513,-1.127197265625E-4,47,43,55,76422,77251,604,6973,14355,5857,787,1346,Tag0,unknown
1545003791533,0,-517,-1.135986328125E-4,47,43,55,76422,77251,604,6973,14355,5857,787,1346,Tag0,unknown
1545003791533,0,-523,-1.149169921875E-4,47,43,55,76422,77251,604,6973,14355,5857,787,1346,Tag0,unknown
1545003791533,0,-519,-1.140380859375E-4,47,43,55,76422,77251,604,6973,14355,5857,787,1346,Tag0,unknown
1545003791533,0,-248,-5.44921875E-5,47,43,55,76422,77251,604,6973,14355,5857,787,1346,Tag0,unknown
1545003791534,0,-231,-5.07568359375E-5,47,43,55,76422,77251,604,6973,14355,5857,787,1346,Tag0,unknown
1545003791534,0,-213,-4.68017578125E-5,47,43,55,76422,77251,604,6973,14355,5857,787,1346,Tag0,unknown
1545003791534,0,-183,-4.02099609375E-5,47,43,55,76422,77251,604,6973,14355,5857,787,1346,Tag0,unknown
1545003791534,0,-163,-3.5815429687500006E-5,47,43,55,76422,77251,604,6973,14355,5857,787,1346,Tag0,unknown
1545003791563,0,-161,-3.53759765625E-5,47,43,55,76422,77251,604,6973,14355,5857,787,1346,Tag0,unknown
1545003791564,0,-163,-3.5815429687500006E-5,47,43,55,76422,77251,604,6973,14355,5857,787,1346,Tag0,unknown
1545003791583,0,-158,-3.4716796875000005E-5,47,43,55,76422,77251,604,6973,14355,5857,787,1346,Tag0,unknown
1545003791583,0,-150,-3.2958984375E-5,47,43,55,76422,77251,604,6973,14355,5857,787,1346,Tag0,unknown
1545003791583,0,-154,-3.3837890625E-5,47,43,55,76422,77251,604,6973,14355,5857,787,1346,Tag0,unknown
1545003791583,0,-166,-3.6474609375E-5,47,43,55,76422,77251,604,6973,14355,5857,787,1346,Tag0,unknown
1545003791583,0,-169,-3.7133789062499996E-5,47,43,55,76422,77251,604,6973,14355,5857,787,1346,Tag0,unknown
1545003791584,0,-161,-3.53759765625E-5,47,43,55,76422,77251,604,6973,14355,5857,787,1346,Tag0,unknown
1545003791584,0,-139,-3.0541992187500004E-5,47,43,55,76422,77251,604,6973,14355,5857,787,1346,Tag0,unknown
1545003791584,0,-380,-8.349609375E-5,47,43,55,76422,77251,604,6973,14355,5857,787,1346,Tag0,unknown
1545003791584,0,-381,-8.371582031250001E-5,47,43,55,76422,77251,604,6973,14355,5857,787,1346,Tag0,unknown
1545003791584,0,-145,-3.18603515625E-5,47,43,55,76422,77251,604,6973,14355,5857,787,1346,Tag0,unknown
1545003791585,0,-151,-3.31787109375E-5,47,43,55,76422,77251,604,6973,14355,5857,787,1346,Tag0,unknown
1545003791585,0,-134,-2.9443359375000003E-5,47,43,55,76422,77251,604,6973,14355,5857,787,1346,Tag0,unknown
1545003791585,0,-373,-8.19580078125E-5,47,43,55,76422,77251,604,6973,14355,5857,787,1346,Tag0,unknown
1545003791585,0,-371,-8.151855468750001E-5,47,43,55,76422,77251,604,6973,14355,5857,787,1346,Tag0,unknown
1545003791585,0,-371,-8.151855468750001E-5,47,43,55,76422,77251,604,6973,14355,5857,787,1346,Tag0,unknown
1545003791585,0,-370,-8.1298828125E-5,47,43,55,76422,77251,604,6973,14355,5857,787,1346,Tag0,unknown
1545003791586,0,-365,-8.02001953125E-5,47,43,55,76422,77251,604,6973,14355,5857,787,1346,Tag0,unknown
1545003791586,0,-366,-8.0419921875E-5,47,43,55,76422,77251,604,6973,14355,5857,787,1346,Tag0,unknown
1545003791599,0,-355,-7.80029296875E-5,47,43,55,76422,77251,604,6973,14355,5857,787,1346,Tag0,unknown
1545003791599,0,-334,-7.338867187500001E-5,47,43,55,76422,77251,604,6973,14355,5857,787,1346,Tag0,unknown
1545003791599,0,-328,-7.207031249999999E-5,47,43,55,76422,77251,604,6973,14355,5857,787,1346,Tag0,unknown
1545003791600,0,-329,-7.229003906250001E-5,47,43,55,76422,77251,604,6973,14355,5857,787,1346,Tag0,unknown
1545003791600,0,-325,-7.14111328125E-5,47,43,55,76422,77251,604,6973,14355,5857,787,1346,Tag0,unknown
1545003791600,0,-326,-7.163085937500001E-5,47,43,55,76422,77251,604,6973,14355,5857,787,1346,Tag0,unknown
1545003791600,0,-339,-7.448730468750001E-5,47,43,55,76422,77251,604,6973,14355,5857,787,1346,Tag0,unknown
1545003791600,0,-343,-7.53662109375E-5,47,43,55,76422,77251,604,6973,14355,5857,787,1346,Tag0,unknown
1545003791601,0,-337,-7.40478515625E-5,47,43,55,76422,77251,604,6973,14355,5857,787,1346,Tag0,unknown
1545003791601,0,-331,-7.272949218750001E-5,47,43,55,76422,77251,604,6973,14355,5857,787,1346,Tag0,unknown
1545003791601,0,-333,-7.316894531249999E-5,47,43,55,76422,77251,604,6973,14355,5857,787,1346,Tag0,unknown
1545003791620,0,-328,-7.207031249999999E-5,47,43,55,76422,77251,604,6973,14355,5857,787,1346,Tag0,unknown
1545003791634,0,-311,-6.833496093750001E-5,47,43,55,76422,77251,604,6973,14355,5857,787,1346,Tag0,unknown
1545003791634,0,-281,-6.17431640625E-5,47,43,55,76422,77251,604,6973,14355,5857,787,1346,Tag0,unknown
1545003791635,0,6,1.318359375E-6,47,43,55,76422,77251,604,6973,14355,5857,787,1346,Tag0,unknown
1545003791635,0,21,4.614257812500001E-6,47,43,55,76422,77251,604,6973,14355,5857,787,1346,Tag0,unknown
1545003791635,0,9,1.9775390625E-6,47,43,55,76422,77251,604,6973,14355,5857,787,1346,Tag0,unknown
1545003791635,0,-278,-6.108398437500001E-5,47,43,55,76422,77251,604,6973,14355,5857,787,1346,Tag0,unknown
1545003791635,0,-302,-6.6357421875E-5,47,43,55,76422,77251,604,6973,14355,5857,787,1346,Tag0,unknown
1545003791636,0,-290,-6.3720703125E-5,47,43,55,76422,77251,604,6973,14355,5857,787,1346,Tag0,unknown
1545003791636,0,-260,-5.712890625E-5,47,43,55,76422,77251,604,6973,14355,5857,787,1346,Tag0,unknown
1545003791636,0,13,2.8564453125E-6,47,43,55,76422,77251,604,6973,14355,5857,787,1346,Tag0,unknown
1545003791636,0,17,3.7353515625000003E-6,47,43,55,76422,77251,604,6973,14355,5857,787,1346,Tag0,unknown
1545003791636,0,4,8.7890625E-7,47,43,55,76422,77251,604,6973,14355,5857,787,1346,Tag0,unknown
1545003791637,0,-260,-5.712890625E-5,47,43,55,76422,77251,604,6973,14355,5857,787,1346,Tag0,unknown
1545003791637,0,-258,-5.6689453125000004E-5,47,43,55,76422,77251,604,6973,14355,5857,787,1346,Tag0,unknown
1545003791637,0,3,6.591796875E-7,47,43,55,76422,77251,604,6973,14355,5857,787,1346,Tag0,unknown
1545003791637,0,0,0.0,47,43,55,76422,77251,604,6973,14355,5857,787,1346,Tag0,unknown
1545003791637,0,-257,-5.64697265625E-5,47,43,55,76422,77251,604,6973,14355,5857,787,1346,Tag0,unknown
1545003791638,0,6,1.318359375E-6,47,43,55,76422,77251,604,6973,14355,5857,787,1346,Tag0,unknown
1545003791638,0,5,1.0986328125E-6,47,43,55,76422,77251,604,6973,14355,5857,787,1346,Tag0,unknown
1545003791638,0,-260,-5.712890625E-5,47,43,55,76422,77251,604,6973,14355,5857,787,1346,Tag0,unknown
1545003791638,0,-263,-5.7788085937500005E-5,47,43,55,76422,77251,604,6973,14355,5857,787,1346,Tag0,unknown
1545003791639,0,-259,-5.69091796875E-5,47,43,55,76422,77251,604,6973,14355,5857,787,1346,Tag0,unknown
1545003791648,0,11,2.4169921875E-6,47,43,55,76422,77251,604,6973,14355,5857,787,1346,Tag0,unknown
1545003791649,0,34,7.4707031250000005E-6,47,43,79,76422,77251,604,6973,14355,5857,787,1346,Tag0,unknown
1545003791649,0,43,9.448242187500001E-6,47,43,79,76422,77251,604,6973,14355,5857,787,1346,Tag0,unknown
1545003791649,0,57,1.2524414062500001E-5,47,43,79,76422,77251,604,6973,14355,5857,787,1346,Tag0,unknown
1545003791649,0,69,1.51611328125E-5,47,43,79,76422,77251,604,6973,14355,5857,787,1346,Tag0,unknown
1545003791650,0,74,1.6259765625E-5,47,43,79,76422,77251,604,6973,14355,5857,787,1346,Tag0,unknown
1545003791650,0,84,1.8457031250000004E-5,47,43,79,76422,77251,604,6973,14355,5857,787,1346,Tag0,unknown
1545003791650,0,98,2.1533203125E-5,47,43,79,76422,77251,604,6973,14355,5857,787,1346,Tag0,unknown
1545003791689,0,109,2.39501953125E-5,47,43,79,76422,77251,604,6973,14355,5857,787,1346,Tag0,unknown
1545003791689,0,123,2.70263671875E-5,47,43,79,76422,77251,604,6973,14355,5857,787,1346,Tag0,unknown
1545003791689,0,-124,-2.724609375E-5,47,43,79,76422,77251,604,6973,14355,5857,787,1346,Tag0,unknown
1545003791690,0,-126,-2.7685546875E-5,47,43,79,76422,77251,604,6973,14355,5857,787,1346,Tag0,unknown
1545003791690,0,124,2.724609375E-5,47,43,79,76422,77251,604,6973,14355,5857,787,1346,Tag0,unknown
1545003791690,0,121,2.6586914062500003E-5,47,43,79,76422,77251,604,6973,14355,5857,787,1346,Tag0,unknown
1545003791690,0,112,2.4609375E-5,47,43,79,76422,77251,604,6973,14355,5857,787,1346,Tag0,unknown
1545003791690,0,92,2.021484375E-5,47,43,79,76422,77251,604,6973,14355,5857,787,1346,Tag0,unknown
1545003791691,0,91,1.99951171875E-5,47,43,79,76422,77251,604,6973,14355,5857,787,1346,Tag0,unknown
1545003791691,0,103,2.26318359375E-5,47,43,79,76422,77251,604,6973,14355,5857,787,1346,Tag0,unknown
1545003791691,0,104,2.28515625E-5,47,43,79,76422,77251,604,6973,14355,5857,787,1346,Tag0,unknown
1545003791691,0,88,1.93359375E-5,47,43,79,76422,77251,604,6973,14355,5857,787,1346,Tag0,unknown
1545003791691,0,77,1.69189453125E-5,47,43,79,76422,77251,604,6973,14355,5857,787,1346,Tag0,unknown
1545003791691,0,73,1.6040039062500002E-5,47,43,79,76422,77251,604,6973,14355,5857,787,1346,Tag0,unknown
1545003791692,0,74,1.6259765625E-5,47,43,79,76422,77251,604,6973,14355,5857,787,1346,Tag0,unknown
1545003791692,0,83,1.82373046875E-5,47,43,79,76422,77251,604,6973,14355,5857,787,1346,Tag0,unknown
1545003791692,0,92,2.021484375E-5,47,43,79,76422,77251,604,6973,14355,5857,787,1346,Tag0,unknown
1545003791692,0,107,2.35107421875E-5,47,43,79,76422,77251,604,6973,14355,5857,787,1346,Tag0,unknown
1545003791692,0,115,2.52685546875E-5,47,43,79,76422,77251,604,6973,14355,5857,787,1346,Tag0,unknown
1545003791693,0,112,2.4609375E-5,47,43,79,76422,77251,604,6973,14355,5857,787,1346,Tag0,unknown
1545003791700,0,103,2.26318359375E-5,47,43,79,76422,77251,604,6973,14355,5857,787,1346,Tag0,unknown
1545003791701,0,98,2.1533203125E-5,47,43,79,76422,77251,604,6973,14355,5857,787,1346,Tag0,unknown
1545003791701,0,99,2.1752929687500003E-5,47,43,79,76422,77251,604,6973,14355,5857,787,1346,Tag0,unknown
1545003791701,0,107,2.35107421875E-5,47,43,79,76422,77251,604,6973,14355,5857,787,1346,Tag0,unknown
1545003791701,0,119,2.6147460937500004E-5,47,43,79,76422,77251,604,6973,14355,5857,787,1346,Tag0,unknown
1545003791715,0,123,2.70263671875E-5,47,43,79,76422,77251,604,6973,14355,5857,787,1346,Tag0,unknown
1545003791735,0,122,2.6806640625E-5,47,43,79,76422,77251,604,6973,14355,5857,787,1346,Tag0,unknown
1545003791749,0,122,2.6806640625E-5,47,43,79,76422,77251,604,6973,14355,5857,787,1346,Tag0,unknown
1545003791749,0,121,2.6586914062500003E-5,47,43,79,76422,77251,604,6973,14355,5857,787,1346,Tag0,unknown
1545003791749,0,-122,-2.6806640625E-5,47,43,79,76422,77251,604,6973,14355,5857,787,1346,Tag0,unknown
1545003791749,0,-104,-2.28515625E-5,47,43,79,76422,77251,604,6973,14355,5857,787,1346,Tag0,unknown
1545003791750,0,-116,-2.548828125E-5,47,43,79,76422,77251,604,6973,14355,5857,787,1346,Tag0,unknown
1545003791750,0,113,2.48291015625E-5,47,43,79,76422,77251,604,6973,14355,5857,787,1346,Tag0,unknown
1545003791750,0,99,2.1752929687500003E-5,47,43,79,76422,77251,604,6973,14355,5857,787,1346,Tag0,unknown
1545003791751,0,117,2.5708007812499998E-5,47,43,79,76422,77251,604,6973,14355,5857,787,1346,Tag0,unknown
1545003791751,0,-110,-2.4169921875E-5,47,43,79,76422,77251,604,6973,14355,5857,787,1346,Tag0,unknown
1545003791751,0,-107,-2.35107421875E-5,47,43,79,76422,77251,604,6973,14355,5857,787,1346,Tag0,unknown
1545003791751,0,-125,-2.74658203125E-5,47,43,79,76422,77251,604,6973,14355,5857,787,1346,Tag0,unknown
1545003791752,0,121,2.6586914062500003E-5,47,43,79,76422,77251,604,6973,14355,5857,787,1346,Tag0,unknown
1545003791752,0,108,2.3730468750000002E-5,47,43,79,76422,77251,604,6973,14355,5857,787,1346,Tag0,unknown
1545003791752,0,106,2.3291015625000003E-5,47,43,79,76422,77251,604,6973,14355,5857,787,1346,Tag0,unknown
1545003791752,0,106,2.3291015625000003E-5,47,43,79,76422,77251,604,6973,14355,5857,787,1346,Tag0,unknown
1545003791753,0,92,2.021484375E-5,47,43,79,76422,77251,604,6973,14355,5857,787,1346,Tag0,unknown
1545003791753,0,83,1.82373046875E-5,47,43,79,76422,77251,604,6973,14355,5857,787,1346,Tag0,unknown
1545003791753,0,86,1.8896484375000003E-5,47,43,79,76422,77251,604,6973,14355,5857,787,1346,Tag0,unknown
1545003791753,0,93,2.04345703125E-5,47,43,79,76422,77251,604,6973,14355,5857,787,1346,Tag0,unknown
1545003791753,0,86,1.8896484375000003E-5,47,43,79,76422,77251,604,6973,14355,5857,787,1346,Tag0,unknown
1545003791753,0,80,1.7578125E-5,47,43,79,76422,77251,604,6973,14355,5857,787,1346,Tag0,unknown
1545003791754,0,85,1.86767578125E-5,47,43,79,76422,77251,604,6973,14355,5857,787,1346,Tag0,unknown
1545003791754,0,91,1.99951171875E-5,47,43,79,76422,77251,604,6973,14355,5857,787,1346,Tag0,unknown
1545003791754,0,99,2.1752929687500003E-5,47,43,79,76422,77251,604,6973,14355,5857,787,1346,Tag0,unknown
1545003791754,0,101,2.2192382812500002E-5,47,43,79,76422,77251,604,6973,14355,5857,787,1346,Tag0,unknown
1545003791755,0,108,2.3730468750000002E-5,47,43,79,76422,77251,604,6973,14355,5857,787,1346,Tag0,unknown
1545003791755,0,115,2.52685546875E-5,47,43,79,76422,77251,604,6973,14355,5857,787,1346,Tag0,unknown
1545003791765,0,103,2.26318359375E-5,47,43,79,76422,77251,604,6973,14355,5857,787,1346,Tag0,unknown
1545003791765,0,70,1.5380859375E-5,47,43,79,76422,77251,604,6973,14355,5857,787,1346,Tag0,unknown
1545003791765,0,24,5.2734375E-6,47,43,79,76422,77251,604,6973,14355,5857,787,1346,Tag0,unknown
1545003791766,0,2,4.39453125E-7,47,43,79,76422,77251,604,6973,14355,5857,787,1346,Tag0,unknown
1545003791766,0,53,1.1645507812500002E-5,47,43,79,76422,77251,604,6973,14355,5857,787,1346,Tag0,unknown
1545003791766,0,-104,-2.28515625E-5,47,43,79,76422,77251,604,6973,14355,5857,787,1346,Tag0,unknown
1545003791766,0,-55,-1.20849609375E-5,47,43,79,76422,77251,604,6973,14355,5857,787,1346,Tag0,unknown
1545003791766,0,-79,-1.7358398437500003E-5,47,43,79,76422,77251,604,6973,14355,5857,787,1346,Tag0,unknown
1545003791835,0,122,2.6806640625E-5,47,43,79,76422,77251,604,6973,14355,5857,787,1346,Tag0,unknown
1545003791836,0,91,1.99951171875E-5,47,43,79,76422,77251,604,6973,14355,5857,787,1346,Tag0,unknown
1545003791836,0,114,2.5048828125000003E-5,47,43,79,76422,77251,604,6973,14355,5857,787,1346,Tag0,unknown
1545003791836,0,-105,-2.30712890625E-5,47,43,79,76422,77251,604,6973,14355,5857,787,1346,Tag0,unknown
1545003791836,0,-103,-2.26318359375E-5,47,43,79,76422,77251,604,6973,14355,5857,787,1346,Tag0,unknown
1545003791836,0,-127,-2.79052734375E-5,47,43,79,76422,77251,604,6973,14355,5857,787,1346,Tag0,unknown
1545003791837,0,101,2.2192382812500002E-5,47,43,79,76422,77251,604,6973,14355,5857,787,1346,Tag0,unknown
1545003791837,0,82,1.8017578124999998E-5,47,43,79,76422,77251,604,6973,14355,5857,787,1346,Tag0,unknown
1545003791837,0,60,1.318359375E-5,47,43,79,76422,77251,604,6973,14355,5857,787,1346,Tag0,unknown
1545003791837,0,35,7.6904296875E-6,47,43,79,76422,77251,604,6973,14355,5857,787,1346,Tag0,unknown
1545003791837,0,19,4.1748046875E-6,47,43,79,76422,77251,604,6973,14355,5857,787,1346,Tag0,unknown
1545003791837,0,20,4.39453125E-6,47,43,79,76422,77251,604,6973,14355,5857,787,1346,Tag0,unknown
1545003791838,0,33,7.2509765625E-6,47,43,79,76422,77251,604,6973,14355,5857,787,1346,Tag0,unknown
1545003791838,0,43,9.448242187500001E-6,47,43,79,76422,77251,604,6973,14355,5857,787,1346,Tag0,unknown
1545003791838,0,41,9.008789062499999E-6,47,43,79,76422,77251,604,6973,14355,5857,787,1346,Tag0,unknown
1545003791838,0,32,7.03125E-6,47,43,79,76422,77251,604,6973,14355,5857,787,1346,Tag0,unknown
1545003791838,0,24,5.2734375E-6,47,43,79,76422,77251,604,6973,14355,5857,787,1346,Tag0,unknown
1545003791838,0,43,9.448242187500001E-6,47,43,79,76422,77251,604,6973,14355,5857,787,1346,Tag0,unknown
1545003791839,0,60,1.318359375E-5,47,43,79,76422,77251,604,6973,14355,5857,787,1346,Tag0,unknown
1545003791839,0,53,1.1645507812500002E-5,47,43,79,76422,77251,604,6973,14355,5857,787,1346,Tag0,unknown
1545003791839,0,36,7.91015625E-6,47,43,79,76422,77251,604,6973,14355,5857,787,1346,Tag0,unknown
1545003791839,0,28,6.15234375E-6,47,43,79,76422,77251,604,6973,14355,5857,787,1346,Tag0,unknown
1545003791839,0,27,5.9326171875000005E-6,47,43,79,76422,77251,604,6973,14355,5857,787,1346,Tag0,unknown
1545003791839,0,38,8.349609375E-6,47,43,79,76422,77251,604,6973,14355,5857,787,1346,Tag0,unknown
1545003791839,0,59,1.29638671875E-5,47,43,79,76422,77251,604,6973,14355,5857,787,1346,Tag0,unknown
1545003791840,0,76,1.669921875E-5,47,43,79,76422,77251,604,6973,14355,5857,787,1346,Tag0,unknown
1545003791840,0,90,1.9775390625E-5,47,43,79,76422,77251,604,6973,14355,5857,787,1346,Tag0,unknown
1545003791840,0,100,2.197265625E-5,47,43,79,76422,77251,604,6973,14355,5857,787,1346,Tag0,unknown
1545003791840,0,106,2.3291015625000003E-5,47,43,79,76422,77251,604,6973,14355,5857,787,1346,Tag0,unknown
1545003791841,0,119,2.6147460937500004E-5,47,43,79,76422,77251,604,6973,14355,5857,787,1346,Tag0,unknown
1545003791841,0,124,2.724609375E-5,47,43,79,76422,77251,604,6973,14355,5857,787,1346,Tag0,unknown
1545003791856,0,124,2.724609375E-5,47,43,79,76422,77251,604,6973,14355,5857,787,1346,Tag0,unknown
1545003791865,0,125,2.74658203125E-5,47,43,79,76422,77251,604,6973,14355,5857,787,1346,Tag0,unknown
1545003791865,0,-121,-2.6586914062500003E-5,47,43,79,76422,77251,604,6973,14355,5857,787,1346,Tag0,unknown
1545003791865,0,-106,-2.3291015625000003E-5,47,43,79,76422,77251,604,6973,14355,5857,787,1346,Tag0,unknown
1545003791866,0,-106,-2.3291015625000003E-5,47,43,79,76422,77251,604,6973,14355,5857,787,1346,Tag0,unknown
1545003791882,0,-117,-2.5708007812499998E-5,47,43,79,76422,77251,604,6973,14355,5857,787,1346,Tag0,unknown
1545003791883,0,123,2.70263671875E-5,47,43,79,76422,77251,604,6973,14355,5857,787,1346,Tag0,unknown
1545003791883,0,108,2.3730468750000002E-5,47,43,79,76422,77251,604,6973,14355,5857,787,1346,Tag0,unknown
1545003791883,0,100,2.197265625E-5,47,43,79,76422,77251,604,6973,14355,5857,787,1346,Tag0,unknown
1545003791883,0,90,1.9775390625E-5,47,43,79,76422,77251,604,6973,14355,5857,787,1346,Tag0,unknown
1545003791884,0,90,1.9775390625E-5,47,43,79,76422,77251,604,6973,14355,5857,787,1346,Tag0,unknown
1545003791884,0,93,2.04345703125E-5,47,43,79,76422,77251,604,6973,14355,5857,787,1346,Tag0,unknown
1545003791884,0,101,2.2192382812500002E-5,47,43,79,76422,77251,604,6973,14355,5857,787,1346,Tag0,unknown
1545003791884,0,114,2.5048828125000003E-5,47,43,79,76422,77251,604,6973,14355,5857,787,1346,Tag0,unknown
1545003791884,0,115,2.52685546875E-5,47,43,79,76422,77251,604,6973,14355,5857,787,1346,Tag0,unknown
1545003791885,0,100,2.197265625E-5,47,43,79,76422,77251,604,6973,14355,5857,787,1346,Tag0,unknown
1545003791885,0,81,1.77978515625E-5,47,43,79,76422,77251,604,6973,14355,5857,787,1346,Tag0,unknown
1545003791885,0,64,1.40625E-5,47,43,79,76422,77251,604,6973,14355,5857,787,1346,Tag0,unknown
1545003791886,0,42,9.228515625000002E-6,47,43,79,76422,77251,604,6973,14355,5857,787,1346,Tag0,unknown
1545003791886,0,43,9.448242187500001E-6,47,43,79,76422,77251,604,6973,14355,5857,787,1346,Tag0,unknown
1545003791886,0,60,1.318359375E-5,47,43,79,76422,77251,604,6973,14355,5857,787,1346,Tag0,unknown
1545003791886,0,64,1.40625E-5,47,43,79,76422,77251,604,6973,14355,5857,787,1346,Tag0,unknown
1545003791886,0,50,1.0986328125E-5,47,43,79,76422,77251,604,6973,14355,5857,787,1346,Tag0,unknown
1545003791887,0,42,9.228515625000002E-6,47,43,79,76422,77251,604,6973,14355,5857,787,1346,Tag0,unknown
1545003791923,0,53,1.1645507812500002E-5,47,43,79,76422,77251,604,6973,14355,5857,787,1346,Tag0,unknown
1545003791924,0,74,1.6259765625E-5,47,43,79,76422,77251,604,6973,14355,5857,787,1346,Tag0,unknown
1545003791924,0,93,2.04345703125E-5,47,43,79,76422,77251,604,6973,14355,5857,787,1346,Tag0,unknown
1545003791932,0,108,2.3730468750000002E-5,47,43,79,76422,77251,604,6973,14355,5857,787,1346,Tag0,unknown
1545003791932,0,121,2.6586914062500003E-5,47,43,79,76422,77251,604,6973,14355,5857,787,1346,Tag0,unknown
1545003791932,0,118,2.5927734375E-5,47,43,79,76422,77251,604,6973,14355,5857,787,1346,Tag0,unknown
1545003791933,0,107,2.35107421875E-5,47,43,79,76422,77251,604,6973,14355,5857,787,1346,Tag0,unknown
1545003791933,0,93,2.04345703125E-5,47,43,79,76422,77251,604,6973,14355,5857,787,1346,Tag0,unknown
1545003791933,0,81,1.77978515625E-5,47,43,79,76422,77251,604,6973,14355,5857,787,1346,Tag0,unknown
1545003791933,0,68,1.4941406250000001E-5,47,43,79,76422,77251,604,6973,14355,5857,787,1346,Tag0,unknown
1545003791934,0,60,1.318359375E-5,47,43,79,76422,77251,604,6973,14355,5857,787,1346,Tag0,unknown
1545003791934,0,58,1.2744140625E-5,47,43,79,76422,77251,604,6973,14355,5857,787,1346,Tag0,unknown
1545003791934,0,54,1.1865234375000001E-5,47,43,79,76422,77251,604,6973,14355,5857,787,1346,Tag0,unknown
1545003791934,0,49,1.07666015625E-5,47,43,79,76422,77251,604,6973,14355,5857,787,1346,Tag0,unknown
1545003791935,0,40,8.7890625E-6,47,43,79,76422,77251,604,6973,14355,5857,787,1346,Tag0,unknown
1545003791935,0,36,7.91015625E-6,47,43,79,76422,77251,604,6973,14355,5857,787,1346,Tag0,unknown
1545003791935,0,35,7.6904296875E-6,47,43,79,76422,77251,604,6973,14355,5857,787,1346,Tag0,unknown
1545003791935,0,35,7.6904296875E-6,47,43,79,76422,77251,604,6973,14355,5857,787,1346,Tag0,unknown
1545003791935,0,42,9.228515625000002E-6,47,43,79,76422,77251,604,6973,14355,5857,787,1346,Tag0,unknown
1545003791935,0,64,1.40625E-5,47,43,79,76422,77251,604,6973,14355,5857,787,1346,Tag0,unknown
1545003791936,0,84,1.8457031250000004E-5,47,43,79,76422,77251,604,6973,14355,5857,787,1346,Tag0,unknown
1545003791936,0,91,1.99951171875E-5,47,43,79,76422,77251,604,6973,14355,5857,787,1346,Tag0,unknown
1545003791936,0,91,1.99951171875E-5,47,43,79,76422,77251,604,6973,14355,5857,787,1346,Tag0,unknown
1545003791936,0,81,1.77978515625E-5,47,43,79,76422,77251,604,6973,14355,5857,787,1346,Tag0,unknown
1545003791977,0,53,1.1645507812500002E-5,47,43,79,76422,77251,604,6973,14355,5857,787,1346,Tag0,unknown
1545003791978,0,38,8.349609375E-6,47,43,79,76422,77251,604,6973,14355,5857,787,1346,Tag0,unknown
1545003791985,0,52,1.142578125E-5,47,43,79,76422,77251,604,6973,14355,5857,787,1346,Tag0,unknown
1545003791986,0,83,1.82373046875E-5,47,43,79,76422,77251,604,6973,14355,5857,787,1346,Tag0,unknown
1545003791987,0,98,2.1533203125E-5,47,43,79,76422,77251,604,6973,14355,5857,787,1346,Tag0,unknown
1545003791987,0,69,1.51611328125E-5,47,43,79,76422,77251,604,6973,14355,5857,787,1346,Tag0,unknown
1545003792001,0,40,8.7890625E-6,47,43,79,76422,77251,604,6973,14355,5857,787,1346,Tag0,unknown
1545003792002,0,36,7.91015625E-6,47,43,79,76422,77251,604,6973,14355,5857,787,1346,Tag0,unknown
1545003792002,0,41,9.008789062499999E-6,47,43,79,76422,77251,604,6973,14355,5857,787,1346,Tag0,unknown
1545003792003,0,64,1.40625E-5,47,43,79,76422,77251,604,6973,14355,5857,787,1346,Tag0,unknown
1545003792003,0,85,1.86767578125E-5,47,43,79,76422,77251,604,6973,14355,5857,787,1346,Tag0,unknown
1545003792003,0,71,1.56005859375E-5,47,43,79,76422,77251,604,6973,14355,5857,787,1346,Tag0,unknown
1545003792003,0,41,9.008789062499999E-6,47,43,79,76422,77251,604,6973,14355,5857,787,1346,Tag0,unknown
1545003792003,0,52,1.142578125E-5,47,43,79,76422,77251,604,6973,14355,5857,787,1346,Tag0,unknown
1545003792004,0,69,1.51611328125E-5,47,43,79,76422,77251,604,6973,14355,5857,787,1346,Tag0,unknown
1545003792004,0,41,9.008789062499999E-6,47,43,79,76422,77251,604,6973,14355,5857,787,1346,Tag0,unknown
1545003792004,0,2,4.39453125E-7,47,43,79,76422,77251,604,6973,14355,5857,787,1346,Tag0,unknown
1545003792004,0,-257,-5.64697265625E-5,47,43,79,76422,77251,604,6973,14355,5857,787,1346,Tag0,unknown
1545003792004,0,10,2.197265625E-6,47,43,79,76422,77251,604,6973,14355,5857,787,1346,Tag0,unknown
1545003792004,0,24,5.2734375E-6,47,43,79,76422,77251,604,6973,14355,5857,787,1346,Tag0,unknown
1545003792005,0,52,1.142578125E-5,47,43,79,76422,77251,604,6973,14355,5857,787,1346,Tag0,unknown
1545003792005,0,53,1.1645507812500002E-5,47,43,79,76422,77251,604,6973,14355,5857,787,1346,Tag0,unknown
1545003792005,0,5,1.0986328125E-6,47,43,79,76422,77251,604,6973,14355,5857,787,1346,Tag0,unknown
1545003792005,0,-268,-5.8886718750000006E-5,47,43,79,76422,77251,604,6973,14355,5857,787,1346,Tag0,unknown
1545003792005,0,17,3.7353515625000003E-6,47,43,79,76422,77251,604,6973,14355,5857,787,1346,Tag0,unknown
1545003792006,0,61,1.34033203125E-5,47,43,79,76422,77251,604,6973,14355,5857,787,1346,Tag0,unknown
1545003792006,0,76,1.669921875E-5,47,43,79,76422,77251,604,6973,14355,5857,787,1346,Tag0,unknown
1545003792006,0,44,9.66796875E-6,47,43,79,76422,77251,604,6973,14355,5857,787,1346,Tag0,unknown
1545003792006,0,12,2.63671875E-6,47,43,79,76422,77251,604,6973,14355,5857,787,1346,Tag0,unknown
1545003792006,0,11,2.4169921875E-6,47,43,79,76422,77251,604,6973,14355,5857,787,1346,Tag0,unknown
1545003792007,0,39,8.5693359375E-6,47,43,79,76422,77251,604,6973,14355,5857,787,1346,Tag0,unknown
1545003792007,0,59,1.29638671875E-5,47,43,79,76422,77251,604,6973,14355,5857,787,1346,Tag0,unknown
1545003792007,0,43,9.448242187500001E-6,47,43,79,76422,77251,604,6973,14355,5857,787,1346,Tag0,unknown
1545003792007,0,3,6.591796875E-7,47,43,79,76422,77251,604,6973,14355,5857,787,1346,Tag0,unknown
1545003792007,0,-270,-5.9326171875E-5,47,43,79,76422,77251,604,6973,14355,5857,787,1346,Tag0,unknown
1545003792008,0,6,1.318359375E-6,47,43,79,76422,77251,604,6973,14355,5857,787,1346,Tag0,unknown
1545003792008,0,45,9.8876953125E-6,47,43,79,76422,77251,604,6973,14355,5857,787,1346,Tag0,unknown
1545003792008,0,83,1.82373046875E-5,47,43,79,76422,77251,604,6973,14355,5857,787,1346,Tag0,unknown
1545003792009,0,113,2.48291015625E-5,47,43,79,76422,77251,604,6973,14355,5857,787,1346,Tag0,unknown
1545003792009,0,107,2.35107421875E-5,47,43,79,76422,77251,604,6973,14355,5857,787,1346,Tag0,unknown
1545003792009,0,85,1.86767578125E-5,47,43,79,76422,77251,604,6973,14355,5857,787,1346,Tag0,unknown
1545003792009,0,80,1.7578125E-5,47,43,79,76422,77251,604,6973,14355,5857,787,1346,Tag0,unknown
1545003792016,0,76,1.669921875E-5,47,43,79,76422,77251,604,6973,14355,5857,787,1346,Tag0,unknown
1545003792016,0,86,1.8896484375000003E-5,47,43,79,76422,77251,604,6973,14355,5857,787,1346,Tag0,unknown
1545003792061,0,112,2.4609375E-5,47,43,79,76422,77251,604,6973,14355,5857,787,1346,Tag0,unknown
1545003792061,0,-124,-2.724609375E-5,47,43,79,76422,77251,604,6973,14355,5857,787,1346,Tag0,unknown
1545003792061,0,125,2.74658203125E-5,47,43,79,76422,77251,604,6973,14355,5857,787,1346,Tag0,unknown
1545003792061,0,92,2.021484375E-5,47,43,79,76422,77251,604,6973,14355,5857,787,1346,Tag0,unknown
1545003792061,0,59,1.29638671875E-5,47,43,79,76422,77251,604,6973,14355,5857,787,1346,Tag0,unknown
1545003792062,0,56,1.23046875E-5,47,43,79,76422,77251,604,6973,14355,5857,787,1346,Tag0,unknown
1545003792062,0,69,1.51611328125E-5,47,43,79,76422,77251,604,6973,14355,5857,787,1346,Tag0,unknown
1545003792062,0,84,1.8457031250000004E-5,47,43,79,76422,77251,604,6973,14355,5857,787,1346,Tag0,unknown
1545003792062,0,88,1.93359375E-5,47,43,79,76422,77251,604,6973,14355,5857,787,1346,Tag0,unknown
1545003792062,0,102,2.2412109374999998E-5,47,43,79,76422,77251,604,6973,14355,5857,787,1346,Tag0,unknown
1545003792063,0,-124,-2.724609375E-5,47,43,79,76422,77251,604,6973,14355,5857,787,1346,Tag0,unknown
1545003792063,0,-125,-2.74658203125E-5,47,43,79,76422,77251,604,6973,14355,5857,787,1346,Tag0,unknown
1545003792063,0,104,2.28515625E-5,47,43,79,76422,77251,604,6973,14355,5857,787,1346,Tag0,unknown
1545003792063,0,107,2.35107421875E-5,47,43,79,76422,77251,604,6973,14355,5857,787,1346,Tag0,unknown
1545003792064,0,117,2.5708007812499998E-5,47,43,79,76422,77251,604,6973,14355,5857,787,1346,Tag0,unknown
1545003792064,0,99,2.1752929687500003E-5,47,43,79,76422,77251,604,6973,14355,5857,787,1346,Tag0,unknown
1545003792064,0,85,1.86767578125E-5,47,43,79,76422,77251,604,6973,14355,5857,787,1346,Tag0,unknown
1545003792064,0,77,1.69189453125E-5,47,43,79,76422,77251,604,6973,14355,5857,787,1346,Tag0,unknown
1545003792065,0,73,1.6040039062500002E-5,47,43,79,76422,77251,604,6973,14355,5857,787,1346,Tag0,unknown
1545003792065,0,75,1.64794921875E-5,47,43,79,76422,77251,604,6973,14355,5857,787,1346,Tag0,unknown
1545003792065,0,86,1.8896484375000003E-5,47,43,79,76422,77251,604,6973,14355,5857,787,1346,Tag0,unknown
1545003792065,0,87,1.91162109375E-5,47,43,79,76422,77251,604,6973,14355,5857,787,1346,Tag0,unknown
1545003792065,0,74,1.6259765625E-5,47,43,79,76422,77251,604,6973,14355,5857,787,1346,Tag0,unknown
1545003792065,0,60,1.318359375E-5,47,43,79,76422,77251,604,6973,14355,5857,787,1346,Tag0,unknown
1545003792066,0,67,1.4721679687500002E-5,47,43,79,76422,77251,604,6973,14355,5857,787,1346,Tag0,unknown
1545003792066,0,84,1.8457031250000004E-5,47,43,79,76422,77251,604,6973,14355,5857,787,1346,Tag0,unknown
1545003792066,0,102,2.2412109374999998E-5,47,43,79,76422,77251,604,6973,14355,5857,787,1346,Tag0,unknown
1545003792066,0,105,2.30712890625E-5,47,43,79,76422,77251,604,6973,14355,5857,787,1346,Tag0,unknown
1545003792066,0,97,2.13134765625E-5,47,43,79,76422,77251,604,6973,14355,5857,787,1346,Tag0,unknown
1545003792066,0,97,2.13134765625E-5,47,43,79,76422,77251,604,6973,14355,5857,787,1346,Tag0,unknown
1545003792095,0,105,2.30712890625E-5,47,43,79,76422,77251,604,6973,14355,5857,787,1346,Tag0,unknown
1545003792116,0,121,2.6586914062500003E-5,47,43,79,76422,77251,604,6973,14355,5857,787,1346,Tag0,unknown
1545003792117,0,-119,-2.6147460937500004E-5,47,43,79,76422,77251,604,6973,14355,5857,787,1346,Tag0,unknown
1545003792117,0,-127,-2.79052734375E-5,47,43,79,76422,77251,604,6973,14355,5857,787,1346,Tag0,unknown
1545003792117,0,98,2.1533203125E-5,47,43,79,76422,77251,604,6973,14355,5857,787,1346,Tag0,unknown
1545003792117,0,74,1.6259765625E-5,47,43,79,76422,77251,604,6973,14355,5857,787,1346,Tag0,unknown
1545003792117,0,96,2.109375E-5,47,43,79,76422,77251,604,6973,14355,5857,787,1346,Tag0,unknown
1545003792118,0,-119,-2.6147460937500004E-5,47,43,79,76422,77251,604,6973,14355,5857,787,1346,Tag0,unknown
1545003792118,0,-107,-2.35107421875E-5,47,43,79,76422,77251,604,6973,14355,5857,787,1346,Tag0,unknown
1545003792118,0,117,2.5708007812499998E-5,47,43,79,76422,77251,604,6973,14355,5857,787,1346,Tag0,unknown
1545003792118,0,82,1.8017578124999998E-5,47,43,79,76422,77251,604,6973,14355,5857,787,1346,Tag0,unknown
1545003792119,0,81,1.77978515625E-5,47,43,79,76422,77251,604,6973,14355,5857,787,1346,Tag0,unknown
1545003792119,0,99,2.1752929687500003E-5,47,43,79,76422,77251,604,6973,14355,5857,787,1346,Tag0,unknown
1545003792119,0,90,1.9775390625E-5,47,43,79,76422,77251,604,6973,14355,5857,787,1346,Tag0,unknown
1545003792119,0,68,1.4941406250000001E-5,47,43,79,76422,77251,604,6973,14355,5857,787,1346,Tag0,unknown
1545003792119,0,59,1.29638671875E-5,47,43,79,76422,77251,604,6973,14355,5857,787,1346,Tag0,unknown
1545003792120,0,68,1.4941406250000001E-5,47,43,79,76422,77251,604,6973,14355,5857,787,1346,Tag0,unknown
1545003792120,0,61,1.34033203125E-5,47,43,79,76422,77251,604,6973,14355,5857,787,1346,Tag0,unknown
1545003792120,0,49,1.07666015625E-5,47,43,79,76422,77251,604,6973,14355,5857,787,1346,Tag0,unknown
1545003792120,0,64,1.40625E-5,47,43,79,76422,77251,604,6973,14355,5857,787,1346,Tag0,unknown
1545003792120,0,57,1.2524414062500001E-5,47,43,79,76422,77251,604,6973,14355,5857,787,1346,Tag0,unknown
1545003792121,0,41,9.008789062499999E-6,47,43,79,76422,77251,604,6973,14355,5857,787,1346,Tag0,unknown
1545003792121,0,64,1.40625E-5,47,43,79,76422,77251,604,6973,14355,5857,787,1346,Tag0,unknown
1545003792121,0,83,1.82373046875E-5,47,43,79,76422,77251,604,6973,14355,5857,787,1346,Tag0,unknown
1545003792121,0,73,1.6040039062500002E-5,47,43,79,76422,77251,604,6973,14355,5857,787,1346,Tag0,unknown
1545003792122,0,67,1.4721679687500002E-5,47,43,79,76422,77251,604,6973,14355,5857,787,1346,Tag0,unknown
1545003792122,0,81,1.77978515625E-5,47,43,79,76422,77251,604,6973,14355,5857,787,1346,Tag0,unknown
1545003792122,0,103,2.26318359375E-5,47,43,79,76422,77251,604,6973,14355,5857,787,1346,Tag0,unknown
1545003792131,0,91,1.99951171875E-5,47,43,79,76422,77251,604,6973,14355,5857,787,1346,Tag0,unknown
1545003792131,0,67,1.4721679687500002E-5,47,43,79,76422,77251,604,6973,14355,5857,787,1346,Tag0,unknown
1545003792131,0,68,1.4941406250000001E-5,47,43,79,76422,77251,604,6973,14355,5857,787,1346,Tag0,unknown
1545003792170,0,68,1.4941406250000001E-5,47,43,79,76422,77251,604,6973,14355,5857,787,1346,Tag0,unknown
1545003792171,0,58,1.2744140625E-5,47,43,79,76422,77251,604,6973,14355,5857,787,1346,Tag0,unknown
1545003792171,0,54,1.1865234375000001E-5,47,43,79,76422,77251,604,6973,14355,5857,787,1346,Tag0,unknown
1545003792171,0,55,1.20849609375E-5,47,43,79,76422,77251,604,6973,14355,5857,787,1346,Tag0,unknown
1545003792172,0,65,1.42822265625E-5,47,43,79,76422,77251,604,6973,14355,5857,787,1346,Tag0,unknown
1545003792172,0,55,1.20849609375E-5,47,43,79,76422,77251,604,6973,14355,5857,787,1346,Tag0,unknown
1545003792172,0,42,9.228515625000002E-6,47,43,79,76422,77251,604,6973,14355,5857,787,1346,Tag0,unknown
1545003792172,0,49,1.07666015625E-5,47,43,79,76422,77251,604,6973,14355,5857,787,1346,Tag0,unknown
