timestampMs,poorSignal,eegRawValue,eegRawValueVolts,attention,meditation,blinkStrength,delta,theta,alphaLow,alphaHigh,betaLow,betaHigh,gammaLow,gammaMid,tagEvent,location
1545074092540,0,-258,-5.6689453125000004E-5,23,100,0,344413,41869,257757,96386,16755844,16762725,6500,8546,Tag0,unknown
1545074092540,0,346,7.6025390625E-5,23,100,0,344413,41869,257757,96386,16755844,16762725,6500,8546,Tag0,unknown
1545074092540,0,330,7.2509765625E-5,23,100,0,344413,41869,257757,96386,16755844,16762725,6500,8546,Tag0,unknown
1545074092554,0,-276,-6.064453125E-5,23,100,0,344413,41869,257757,96386,16755844,16762725,6500,8546,Tag0,unknown
1545074092555,0,-243,-5.33935546875E-5,23,100,0,344413,41869,257757,96386,16755844,16762725,6500,8546,Tag0,unknown
1545074092555,0,-341,-7.492675781250002E-5,23,100,0,344413,41869,257757,96386,16755844,16762725,6500,8546,Tag0,unknown
1545074092555,0,258,5.6689453125000004E-5,23,100,0,344413,41869,257757,96386,16755844,16762725,6500,8546,Tag0,unknown
1545074092555,0,296,6.50390625E-5,23,100,0,344413,41869,257757,96386,16755844,16762725,6500,8546,Tag0,unknown
1545074092556,0,-263,-5.7788085937500005E-5,23,100,0,344413,41869,257757,96386,16755844,16762725,6500,8546,Tag0,unknown
1545074092556,0,-243,-5.33935546875E-5,23,100,0,344413,41869,257757,96386,16755844,16762725,6500,8546,Tag0,unknown
1545074092556,0,-372,-8.173828125E-5,23,100,0,344413,41869,257757,96386,16755844,16762725,6500,8546,Tag0,unknown
1545074092556,0,-16,-3.515625E-6,23,100,0,344413,41869,257757,96386,16755844,16762725,6500,8546,Tag0,unknown
1545074092557,0,330,7.2509765625E-5,23,100,0,344413,41869,257757,96386,16755844,16762725,6500,8546,Tag0,unknown
1545074092557,0,21,4.614257812500001E-6,23,100,0,344413,41869,257757,96386,16755844,16762725,6500,8546,Tag0,unknown
1545074092557,0,-529,-1.162353515625E-4,23,100,0,344413,41869,257757,96386,16755844,16762725,6500,8546,Tag0,unknown
1545074092557,0,-197,-4.32861328125E-5,23,100,0,344413,41869,257757,96386,16755844,16762725,6500,8546,Tag0,unknown
1545074092558,0,-101,-2.2192382812500002E-5,23,100,0,344413,41869,257757,96386,16755844,16762725,6500,8546,Tag0,unknown
1545074092558,0,297,6.525878906250001E-5,23,100,0,344413,41869,257757,96386,16755844,16762725,6500,8546,Tag0,unknown
1545074092558,0,29,6.3720703125E-6,23,100,0,344413,41869,257757,96386,16755844,16762725,6500,8546,Tag0,unknown
1545074092558,0,-254,-5.5810546875E-5,23,100,0,344413,41869,257757,96386,16755844,16762725,6500,8546,Tag0,unknown
1545074092558,0,-214,-4.7021484375E-5,23,100,0,344413,41869,257757,96386,16755844,16762725,6500,8546,Tag0,unknown
1545074092559,0,-120,-2.63671875E-5,23,100,0,344413,41869,257757,96386,16755844,16762725,6500,8546,Tag0,unknown
1545074092559,0,353,7.75634765625E-5,23,100,0,344413,41869,257757,96386,16755844,16762725,6500,8546,Tag0,unknown
1545074092559,0,-107,-2.35107421875E-5,23,100,0,344413,41869,257757,96386,16755844,16762725,6500,8546,Tag0,unknown
1545074092559,0,-163,-3.5815429687500006E-5,23,100,0,344413,41869,257757,96386,16755844,16762725,6500,8546,Tag0,unknown
1545074092559,0,-180,-3.955078125E-5,23,100,0,344413,41869,257757,96386,16755844,16762725,6500,8546,Tag0,unknown
1545074092559,0,-110,-2.4169921875E-5,23,100,0,344413,41869,257757,96386,16755844,16762725,6500,8546,Tag0,unknown
1545074092560,0,151,3.31787109375E-5,23,100,0,344413,41869,257757,96386,16755844,16762725,6500,8546,Tag0,unknown
1545074092560,0,256,5.625E-5,23,100,0,344413,41869,257757,96386,16755844,16762725,6500,8546,Tag0,unknown
1545074092560,0,-298,-6.5478515625E-5,23,100,0,344413,41869,257757,96386,16755844,16762725,6500,8546,Tag0,unknown
1545074092589,0,-345,-7.58056640625E-5,23,100,0,344413,41869,257757,96386,16755844,16762725,6500,8546,Tag0,unknown
1545074092603,0,-40,-8.7890625E-6,23,100,0,344413,41869,257757,96386,16755844,16762725,6500,8546,Tag0,unknown
1545074092603,0,244,5.361328125E-5,23,100,0,344413,41869,257757,96386,16755844,16762725,6500,8546,Tag0,unknown
1545074092604,0,353,7.75634765625E-5,23,100,0,344413,41869,257757,96386,16755844,16762725,6500,8546,Tag0,unknown
1545074092604,0,-278,-6.108398437500001E-5,23,100,0,344413,41869,257757,96386,16755844,16762725,6500,8546,Tag0,unknown
1545074092604,0,-167,-3.6694335937500004E-5,23,100,0,344413,41869,257757,96386,16755844,16762725,6500,8546,Tag0,unknown
1545074092604,0,76,1.669921875E-5,23,100,0,344413,41869,257757,96386,16755844,16762725,6500,8546,Tag0,unknown
1545074092605,0,129,2.8344726562500002E-5,23,100,0,344413,41869,257757,96386,16755844,16762725,6500,8546,Tag0,unknown
1545074092605,0,293,6.43798828125E-5,23,100,0,344413,41869,257757,96386,16755844,16762725,6500,8546,Tag0,unknown
1545074092605,0,-295,-6.48193359375E-5,23,100,0,344413,41869,257757,96386,16755844,16762725,6500,8546,Tag0,unknown
1545074092605,0,-184,-4.04296875E-5,23,100,0,344413,41869,257757,96386,16755844,16762725,6500,8546,Tag0,unknown
1545074092605,0,43,9.448242187500001E-6,23,100,0,344413,41869,257757,96386,16755844,16762725,6500,8546,Tag0,unknown
1545074092605,0,369,8.10791015625E-5,23,100,0,344413,41869,257757,96386,16755844,16762725,6500,8546,Tag0,unknown
1545074092607,0,314,6.8994140625E-5,23,100,0,344413,41869,257757,96386,16755844,16762725,6500,8546,Tag0,unknown
1545074092608,0,-293,-6.43798828125E-5,23,100,0,344413,41869,257757,96386,16755844,16762725,6500,8546,Tag0,unknown
1545074092608,0,-237,-5.2075195312500004E-5,23,100,0,344413,41869,257757,96386,16755844,16762725,6500,8546,Tag0,unknown
1545074092608,0,-312,-6.85546875E-5,23,100,0,344413,41869,257757,96386,16755844,16762725,6500,8546,Tag0,unknown
1545074092608,0,283,6.218261718750001E-5,23,100,0,344413,41869,257757,96386,16755844,16762725,6500,8546,Tag0,unknown
1545074092608,0,300,6.591796875E-5,23,100,0,344413,41869,257757,96386,16755844,16762725,6500,8546,Tag0,unknown
1545074092608,0,-265,-5.82275390625E-5,23,100,0,344413,41869,257757,96386,16755844,16762725,6500,8546,Tag0,unknown
1545074092609,0,-220,-4.833984375E-5,23,100,0,344413,41869,257757,96386,16755844,16762725,6500,8546,Tag0,unknown
1545074092609,0,-311,-6.833496093750001E-5,23,100,0,344413,41869,257757,96386,16755844,16762725,6500,8546,Tag0,unknown
1545074092609,0,323,7.09716796875E-5,23,100,0,344413,41869,257757,96386,16755844,16762725,6500,8546,Tag0,unknown
1545074092609,0,133,2.92236328125E-5,23,100,0,344413,41869,257757,96386,16755844,16762725,6500,8546,Tag0,unknown
1545074092620,0,54,1.1865234375000001E-5,23,100,0,344413,41869,257757,96386,16755844,16762725,6500,8546,Tag0,unknown
1545074092620,0,-220,-4.833984375E-5,23,100,0,344413,41869,257757,96386,16755844,16762725,6500,8546,Tag0,unknown
1545074092620,0,-361,-7.93212890625E-5,23,100,0,344413,41869,257757,96386,16755844,16762725,6500,8546,Tag0,unknown
1545074092620,0,272,5.9765625000000004E-5,23,100,0,344413,41869,257757,96386,16755844,16762725,6500,8546,Tag0,unknown
1545074092620,0,146,3.2080078125000004E-5,23,100,0,344413,41869,257757,96386,16755844,16762725,6500,8546,Tag0,unknown
1545074092621,0,-123,-2.70263671875E-5,23,100,0,344413,41869,257757,96386,16755844,16762725,6500,8546,Tag0,unknown
1545074092652,0,-381,-8.371582031250001E-5,23,100,0,344413,41869,257757,96386,16755844,16762725,6500,8546,Tag0,unknown
1545074092670,0,-291,-6.39404296875E-5,23,100,0,344413,41869,257757,96386,16755844,16762725,6500,8546,Tag0,unknown
1545074092670,0,330,7.2509765625E-5,23,100,0,344413,41869,257757,96386,16755844,16762725,6500,8546,Tag0,unknown
1545074092672,0,230,5.0537109375E-5,23,100,0,344413,41869,257757,96386,16755844,16762725,6500,8546,Tag0,unknown
1545074092673,0,-60,-1.318359375E-5,23,100,0,344413,41869,257757,96386,16755844,16762725,6500,8546,Tag0,unknown
1545074092673,0,-161,-3.53759765625E-5,23,100,0,344413,41869,257757,96386,16755844,16762725,6500,8546,Tag0,unknown
1545074092673,0,-183,-4.02099609375E-5,23,100,0,344413,41869,257757,96386,16755844,16762725,6500,8546,Tag0,unknown
1545074092674,0,-105,-2.30712890625E-5,23,100,0,344413,41869,257757,96386,16755844,16762725,6500,8546,Tag0,unknown
1545074092674,0,139,3.0541992187500004E-5,23,100,0,344413,41869,257757,96386,16755844,16762725,6500,8546,Tag0,unknown
1545074092674,0,-54,-1.1865234375000001E-5,23,100,0,344413,41869,257757,96386,16755844,16762725,6500,8546,Tag0,unknown
1545074092674,0,-134,-2.9443359375000003E-5,23,100,0,344413,41869,257757,96386,16755844,16762725,6500,8546,Tag0,unknown
1545074092675,0,-185,-4.06494140625E-5,23,100,0,344413,41869,257757,96386,16755844,16762725,6500,8546,Tag0,unknown
1545074092675,0,-128,-2.8125E-5,23,100,0,344413,41869,257757,96386,16755844,16762725,6500,8546,Tag0,unknown
1545074092675,0,131,2.87841796875E-5,23,100,0,344413,41869,257757,96386,16755844,16762725,6500,8546,Tag0,unknown
1545074092675,0,-42,-9.228515625000002E-6,23,100,0,344413,41869,257757,96386,16755844,16762725,6500,8546,Tag0,unknown
1545074092675,0,-155,-3.40576171875E-5,23,100,0,344413,41869,257757,96386,16755844,16762725,6500,8546,Tag0,unknown
1545074092676,0,-252,-5.537109375E-5,23,100,0,344413,41869,257757,96386,16755844,16762725,6500,8546,Tag0,unknown
1545074092676,0,27,5.9326171875000005E-6,23,100,0,344413,41869,257757,96386,16755844,16762725,6500,8546,Tag0,unknown
1545074092676,0,325,7.14111328125E-5,23,100,0,344413,41869,257757,96386,16755844,16762725,6500,8546,Tag0,unknown
1545074092676,0,-57,-1.2524414062500001E-5,23,100,0,344413,41869,257757,96386,16755844,16762725,6500,8546,Tag0,unknown
1545074092676,0,-146,-3.2080078125000004E-5,23,100,0,344413,41869,257757,96386,16755844,16762725,6500,8546,Tag0,unknown
1545074092677,0,-514,-1.12939453125E-4,23,100,0,344413,41869,257757,96386,16755844,16762725,6500,8546,Tag0,unknown
1545074092677,0,16,3.515625E-6,23,100,0,344413,41869,257757,96386,16755844,16762725,6500,8546,Tag0,unknown
1545074092677,0,340,7.470703125E-5,23,100,0,344413,41869,257757,96386,16755844,16762725,6500,8546,Tag0,unknown
1545074092677,0,265,5.82275390625E-5,23,100,0,344413,41869,257757,96386,16755844,16762725,6500,8546,Tag0,unknown
1545074092677,0,-341,-7.492675781250002E-5,23,100,0,344413,41869,257757,96386,16755844,16762725,6500,8546,Tag0,unknown
1545074092678,0,-246,-5.4052734375E-5,23,100,0,344413,41869,257757,96386,16755844,16762725,6500,8546,Tag0,unknown
1545074092678,0,-273,-5.998535156250001E-5,23,100,0,344413,41869,257757,96386,16755844,16762725,6500,8546,Tag0,unknown
1545074092678,0,337,7.40478515625E-5,23,100,0,344413,41869,257757,96386,16755844,16762725,6500,8546,Tag0,unknown
1545074092686,0,324,7.119140625E-5,23,100,0,344413,41869,257757,96386,16755844,16762725,6500,8546,Tag0,unknown
1545074092686,0,10,2.197265625E-6,23,100,0,344413,41869,257757,96386,16755844,16762725,6500,8546,Tag0,unknown
1545074092714,0,-157,-3.44970703125E-5,23,100,0,344413,41869,257757,96386,16755844,16762725,6500,8546,Tag0,unknown
1545074092714,0,41,9.008789062499999E-6,23,100,0,344413,41869,257757,96386,16755844,16762725,6500,8546,Tag0,unknown
1545074092714,0,155,3.40576171875E-5,23,100,0,344413,41869,257757,96386,16755844,16762725,6500,8546,Tag0,unknown
1545074092714,0,195,4.28466796875E-5,23,100,0,344413,41869,257757,96386,16755844,16762725,6500,8546,Tag0,unknown
1545074092720,0,118,2.5927734375E-5,23,100,0,344413,41869,257757,96386,16755844,16762725,6500,8546,Tag0,unknown
1545074092720,0,-147,-3.22998046875E-5,23,100,0,344413,41869,257757,96386,16755844,16762725,6500,8546,Tag0,unknown
1545074092720,0,-299,-6.56982421875E-5,23,100,0,344413,41869,257757,96386,16755844,16762725,6500,8546,Tag0,unknown
1545074092720,0,301,6.613769531250001E-5,23,100,0,344413,41869,257757,96386,16755844,16762725,6500,8546,Tag0,unknown
1545074092721,0,151,3.31787109375E-5,23,100,0,344413,41869,257757,96386,16755844,16762725,6500,8546,Tag0,unknown
1545074092721,0,124,2.724609375E-5,23,100,0,344413,41869,257757,96386,16755844,16762725,6500,8546,Tag0,unknown
1545074092721,0,-163,-3.5815429687500006E-5,23,100,0,344413,41869,257757,96386,16755844,16762725,6500,8546,Tag0,unknown
1545074092721,0,-363,-7.97607421875E-5,23,100,0,344413,41869,257757,96386,16755844,16762725,6500,8546,Tag0,unknown
1545074092721,0,-19,-4.1748046875E-6,23,100,0,344413,41869,257757,96386,16755844,16762725,6500,8546,Tag0,unknown
1545074092722,0,374,8.2177734375E-5,23,100,0,344413,41869,257757,96386,16755844,16762725,6500,8546,Tag0,unknown
1545074092722,0,90,1.9775390625E-5,23,100,0,344413,41869,257757,96386,16755844,16762725,6500,8546,Tag0,unknown
1545074092722,0,-229,-5.03173828125E-5,23,100,0,344413,41869,257757,96386,16755844,16762725,6500,8546,Tag0,unknown
1545074092722,0,-210,-4.6142578125E-5,23,100,0,344413,41869,257757,96386,16755844,16762725,6500,8546,Tag0,unknown
1545074092723,0,125,2.74658203125E-5,23,100,0,344413,41869,257757,96386,16755844,16762725,6500,8546,Tag0,unknown
1545074092723,0,321,7.053222656250001E-5,23,100,0,344413,41869,257757,96386,16755844,16762725,6500,8546,Tag0,unknown
1545074092723,0,106,2.3291015625000003E-5,23,100,0,344413,41869,257757,96386,16755844,16762725,6500,8546,Tag0,unknown
1545074092723,0,-173,-3.80126953125E-5,23,100,0,344413,41869,257757,96386,16755844,16762725,6500,8546,Tag0,unknown
1545074092723,0,-163,-3.5815429687500006E-5,23,100,0,344413,41869,257757,96386,16755844,16762725,6500,8546,Tag0,unknown
1545074092736,0,-87,-1.91162109375E-5,23,100,0,344413,41869,257757,96386,16755844,16762725,6500,8546,Tag0,unknown
1545074092736,0,148,3.251953125E-5,23,100,0,344413,41869,257757,96386,16755844,16762725,6500,8546,Tag0,unknown
1545074092738,0,-46,-1.0107421875E-5,23,100,0,344413,41869,257757,96386,16755844,16762725,6500,8546,Tag0,unknown
1545074092739,0,-137,-3.0102539062499998E-5,23,100,0,344413,41869,257757,96386,16755844,16762725,6500,8546,Tag0,unknown
1545074092739,0,-212,-4.6582031250000006E-5,23,100,0,344413,41869,257757,96386,16755844,16762725,6500,8546,Tag0,unknown
1545074092739,0,73,1.6040039062500002E-5,23,100,0,344413,41869,257757,96386,16755844,16762725,6500,8546,Tag0,unknown
1545074092739,0,358,7.8662109375E-5,23,100,0,344413,41869,257757,96386,16755844,16762725,6500,8546,Tag0,unknown
1545074092740,0,-13,-2.8564453125E-6,23,100,0,344413,41869,257757,96386,16755844,16762725,6500,8546,Tag0,unknown
1545074092740,0,-317,-6.96533203125E-5,23,100,0,344413,41869,257757,96386,16755844,16762725,6500,8546,Tag0,unknown
1545074092768,0,-138,-3.0322265625E-5,23,100,0,344413,41869,257757,96386,16755844,16762725,6500,8546,Tag0,unknown
1545074092796,0,-109,-2.39501953125E-5,23,100,0,344413,41869,257757,96386,16755844,16762725,6500,8546,Tag0,unknown
1545074092796,0,211,4.63623046875E-5,23,100,0,344413,41869,257757,96386,16755844,16762725,6500,8546,Tag0,unknown
1545074092797,0,133,2.92236328125E-5,23,100,0,344413,41869,257757,96386,16755844,16762725,6500,8546,Tag0,unknown
1545074092797,0,34,7.4707031250000005E-6,23,100,0,344413,41869,257757,96386,16755844,16762725,6500,8546,Tag0,unknown
1545074092797,0,-140,-3.076171875E-5,23,100,0,344413,41869,257757,96386,16755844,16762725,6500,8546,Tag0,unknown
1545074092797,0,53,1.1645507812500002E-5,23,100,0,344413,41869,257757,96386,16755844,16762725,6500,8546,Tag0,unknown
1545074092798,0,356,7.822265625E-5,23,100,0,344413,41869,257757,96386,16755844,16762725,6500,8546,Tag0,unknown
1545074092798,0,299,6.56982421875E-5,23,100,0,344413,41869,257757,96386,16755844,16762725,6500,8546,Tag0,unknown
1545074092798,0,-282,-6.1962890625E-5,23,100,0,344413,41869,257757,96386,16755844,16762725,6500,8546,Tag0,unknown
1545074092798,0,-199,-4.3725585937499995E-5,23,100,0,344413,41869,257757,96386,16755844,16762725,6500,8546,Tag0,unknown
1545074092798,0,-258,-5.6689453125000004E-5,23,100,0,344413,41869,257757,96386,16755844,16762725,6500,8546,Tag0,unknown
1545074092799,0,344,7.558593750000001E-5,23,100,0,344413,41869,257757,96386,16755844,16762725,6500,8546,Tag0,unknown
1545074092799,0,342,7.5146484375E-5,23,100,0,344413,41869,257757,96386,16755844,16762725,6500,8546,Tag0,unknown
1545074092799,0,-277,-6.0864257812500005E-5,23,100,0,344413,41869,257757,96386,16755844,16762725,6500,8546,Tag0,unknown
1545074092799,0,-533,-1.171142578125E-4,23,100,0,344413,41869,257757,96386,16755844,16762725,6500,8546,Tag0,unknown
1545074092799,0,-137,-3.0102539062499998E-5,23,100,0,344413,41869,257757,96386,16755844,16762725,6500,8546,Tag0,unknown
1545074092800,0,-42,-9.228515625000002E-6,23,100,0,344413,41869,257757,96386,16755844,16762725,6500,8546,Tag0,unknown
1545074092800,0,282,6.1962890625E-5,23,100,0,344413,41869,257757,96386,16755844,16762725,6500,8546,Tag0,unknown
1545074092800,0,-269,-5.9106445312499996E-5,23,100,0,344413,41869,257757,96386,16755844,16762725,6500,8546,Tag0,unknown
1545074092801,0,-516,-1.1337890625000001E-4,23,100,0,344413,41869,257757,96386,16755844,16762725,6500,8546,Tag0,unknown
1545074092801,0,-141,-3.09814453125E-5,23,100,0,344413,41869,257757,96386,16755844,16762725,6500,8546,Tag0,unknown
1545074092801,0,-28,-6.15234375E-6,23,100,0,344413,41869,257757,96386,16755844,16762725,6500,8546,Tag0,unknown
1545074092801,0,348,7.646484375E-5,23,100,0,344413,41869,257757,96386,16755844,16762725,6500,8546,Tag0,unknown
1545074092802,0,48,1.0546875E-5,23,100,0,344413,41869,257757,96386,16755844,16762725,6500,8546,Tag0,unknown
1545074092802,0,-247,-5.42724609375E-5,23,100,0,344413,41869,257757,96386,16755844,16762725,6500,8546,Tag0,unknown
1545074092802,0,-179,-3.93310546875E-5,23,100,0,344413,41869,257757,96386,16755844,16762725,6500,8546,Tag0,unknown
1545074092802,0,-76,-1.669921875E-5,23,100,0,344413,41869,257757,96386,16755844,16762725,6500,8546,Tag0,unknown
1545074092802,0,369,8.10791015625E-5,23,100,0,344413,41869,257757,96386,16755844,16762725,6500,8546,Tag0,unknown
1545074092803,0,-110,-2.4169921875E-5,23,100,0,344413,41869,257757,96386,16755844,16762725,6500,8546,Tag0,unknown
1545074092803,0,-375,-8.23974609375E-5,23,100,0,344413,41869,257757,96386,16755844,16762725,6500,8546,Tag0,unknown
1545074092827,0,-323,-7.09716796875E-5,23,100,0,344413,41869,257757,96386,16755844,16762725,6500,8546,Tag0,unknown
1545074092836,0,284,6.240234375E-5,23,100,0,344413,41869,257757,96386,16755844,16762725,6500,8546,Tag0,unknown
1545074092837,0,237,5.2075195312500004E-5,23,100,0,344413,41869,257757,96386,16755844,16762725,6500,8546,Tag0,unknown
1545074092839,26,265,5.82275390625E-5,23,100,0,151293,158111,18384,18711,19252,3961,691,2115,Tag0,unknown
1545074092839,26,-338,-7.426757812499999E-5,23,100,0,151293,158111,18384,18711,19252,3961,691,2115,Tag0,unknown
1545074092839,26,-135,-2.96630859375E-5,23,100,0,151293,158111,18384,18711,19252,3961,691,2115,Tag0,unknown
1545074092840,26,-94,-2.0654296875000002E-5,23,100,0,151293,158111,18384,18711,19252,3961,691,2115,Tag0,unknown
1545074092840,26,156,3.427734375E-5,23,100,0,151293,158111,18384,18711,19252,3961,691,2115,Tag0,unknown
1545074092840,26,-11,-2.4169921875E-6,23,100,0,151293,158111,18384,18711,19252,3961,691,2115,Tag0,unknown
1545074092840,26,-345,-7.58056640625E-5,23,100,0,151293,158111,18384,18711,19252,3961,691,2115,Tag0,unknown
1545074092841,26,-181,-3.9770507812500004E-5,23,100,0,151293,158111,18384,18711,19252,3961,691,2115,Tag0,unknown
1545074092841,26,85,1.86767578125E-5,23,100,0,151293,158111,18384,18711,19252,3961,691,2115,Tag0,unknown
1545074092841,26,363,7.97607421875E-5,23,100,0,151293,158111,18384,18711,19252,3961,691,2115,Tag0,unknown
1545074092841,26,-21,-4.614257812500001E-6,23,100,0,151293,158111,18384,18711,19252,3961,691,2115,Tag0,unknown
1545074092842,26,-380,-8.349609375E-5,23,100,0,151293,158111,18384,18711,19252,3961,691,2115,Tag0,unknown
1545074092842,26,-529,-1.162353515625E-4,23,100,0,151293,158111,18384,18711,19252,3961,691,2115,Tag0,unknown
1545074092842,26,-293,-6.43798828125E-5,23,100,0,151293,158111,18384,18711,19252,3961,691,2115,Tag0,unknown
1545074092842,26,267,5.86669921875E-5,23,100,0,151293,158111,18384,18711,19252,3961,691,2115,Tag0,unknown
1545074092843,26,-47,-1.0327148437500001E-5,23,100,0,151293,158111,18384,18711,19252,3961,691,2115,Tag0,unknown
1545074092843,26,-353,-7.75634765625E-5,23,100,0,151293,158111,18384,18711,19252,3961,691,2115,Tag0,unknown
1545074092854,26,-235,-5.16357421875E-5,23,100,0,151293,158111,18384,18711,19252,3961,691,2115,Tag0,unknown
1545074092855,26,-270,-5.9326171875E-5,23,100,0,151293,158111,18384,18711,19252,3961,691,2115,Tag0,unknown
1545074092855,26,311,6.833496093750001E-5,23,100,0,151293,158111,18384,18711,19252,3961,691,2115,Tag0,unknown
1545074092855,26,279,6.13037109375E-5,23,100,0,151293,158111,18384,18711,19252,3961,691,2115,Tag0,unknown
1545074092857,26,-313,-6.87744140625E-5,23,100,0,151293,158111,18384,18711,19252,3961,691,2115,Tag0,unknown
1545074092858,26,-251,-5.5151367187500004E-5,23,100,0,151293,158111,18384,18711,19252,3961,691,2115,Tag0,unknown
1545074092858,26,-327,-7.18505859375E-5,23,100,0,151293,158111,18384,18711,19252,3961,691,2115,Tag0,unknown
1545074092858,26,295,6.48193359375E-5,23,100,0,151293,158111,18384,18711,19252,3961,691,2115,Tag0,unknown
1545074092858,26,357,7.844238281250001E-5,23,100,0,151293,158111,18384,18711,19252,3961,691,2115,Tag0,unknown
1545074092858,26,83,1.82373046875E-5,23,100,0,151293,158111,18384,18711,19252,3961,691,2115,Tag0,unknown
1545074092889,26,-376,-8.261718750000001E-5,23,100,0,151293,158111,18384,18711,19252,3961,691,2115,Tag0,unknown
1545074092903,26,11,2.4169921875E-6,23,100,0,151293,158111,18384,18711,19252,3961,691,2115,Tag0,unknown
1545074092903,26,363,7.97607421875E-5,23,100,0,151293,158111,18384,18711,19252,3961,691,2115,Tag0,unknown
1545074092903,26,194,4.2626953125E-5,23,100,0,151293,158111,18384,18711,19252,3961,691,2115,Tag0,unknown
1545074092904,26,-124,-2.724609375E-5,23,100,0,151293,158111,18384,18711,19252,3961,691,2115,Tag0,unknown
1545074092904,26,-167,-3.6694335937500004E-5,23,100,0,151293,158111,18384,18711,19252,3961,691,2115,Tag0,unknown
1545074092904,26,-360,-7.91015625E-5,23,100,0,151293,158111,18384,18711,19252,3961,691,2115,Tag0,unknown
1545074092904,26,-31,-6.8115234375E-6,23,100,0,151293,158111,18384,18711,19252,3961,691,2115,Tag0,unknown
1545074092905,26,348,7.646484375E-5,23,100,0,151293,158111,18384,18711,19252,3961,691,2115,Tag0,unknown
1545074092905,26,90,1.9775390625E-5,23,100,0,151293,158111,18384,18711,19252,3961,691,2115,Tag0,unknown
1545074092905,26,-186,-4.0869140625E-5,23,100,0,151293,158111,18384,18711,19252,3961,691,2115,Tag0,unknown
1545074092905,26,-139,-3.0541992187500004E-5,23,100,0,151293,158111,18384,18711,19252,3961,691,2115,Tag0,unknown
1545074092905,26,-52,-1.142578125E-5,23,100,0,151293,158111,18384,18711,19252,3961,691,2115,Tag0,unknown
1545074092905,26,130,2.8564453125E-5,23,100,0,151293,158111,18384,18711,19252,3961,691,2115,Tag0,unknown
1545074092906,26,-121,-2.6586914062500003E-5,23,100,0,151293,158111,18384,18711,19252,3961,691,2115,Tag0,unknown
1545074092906,26,-214,-4.7021484375E-5,23,100,0,151293,158111,18384,18711,19252,3961,691,2115,Tag0,unknown
1545074092906,26,-237,-5.2075195312500004E-5,23,100,0,151293,158111,18384,18711,19252,3961,691,2115,Tag0,unknown
1545074092906,26,87,1.91162109375E-5,23,100,0,151293,158111,18384,18711,19252,3961,691,2115,Tag0,unknown
1545074092906,26,325,7.14111328125E-5,23,100,0,151293,158111,18384,18711,19252,3961,691,2115,Tag0,unknown
1545074092906,26,-124,-2.724609375E-5,23,100,0,151293,158111,18384,18711,19252,3961,691,2115,Tag0,unknown
1545074092906,26,-182,-3.9990234375E-5,23,100,0,151293,158111,18384,18711,19252,3961,691,2115,Tag0,unknown
1545074092907,26,-218,-4.7900390625E-5,23,100,0,151293,158111,18384,18711,19252,3961,691,2115,Tag0,unknown
1545074092907,26,92,2.021484375E-5,23,100,0,151293,158111,18384,18711,19252,3961,691,2115,Tag0,unknown
1545074092907,26,364,7.998046875E-5,23,100,0,151293,158111,18384,18711,19252,3961,691,2115,Tag0,unknown
1545074092920,26,-39,-8.5693359375E-6,23,100,0,151293,158111,18384,18711,19252,3961,691,2115,Tag0,unknown
1545074092921,26,-129,-2.8344726562500002E-5,23,100,0,151293,158111,18384,18711,19252,3961,691,2115,Tag0,unknown
1545074092921,26,-231,-5.07568359375E-5,23,100,0,151293,158111,18384,18711,19252,3961,691,2115,Tag0,unknown
1545074092921,26,38,8.349609375E-6,23,100,0,151293,158111,18384,18711,19252,3961,691,2115,Tag0,unknown
1545074092921,26,346,7.6025390625E-5,23,100,0,151293,158111,18384,18711,19252,3961,691,2115,Tag0,unknown
1545074092921,26,272,5.9765625000000004E-5,23,100,0,151293,158111,18384,18711,19252,3961,691,2115,Tag0,unknown
1545074092922,26,-279,-6.13037109375E-5,23,100,0,151293,158111,18384,18711,19252,3961,691,2115,Tag0,unknown
1545074092950,26,-154,-3.3837890625E-5,23,100,0,151293,158111,18384,18711,19252,3961,691,2115,Tag0,unknown
1545074092951,26,67,1.4721679687500002E-5,23,100,0,151293,158111,18384,18711,19252,3961,691,2115,Tag0,unknown
1545074092954,26,139,3.0541992187500004E-5,23,100,0,151293,158111,18384,18711,19252,3961,691,2115,Tag0,unknown
1545074092954,26,359,7.88818359375E-5,23,100,0,151293,158111,18384,18711,19252,3961,691,2115,Tag0,unknown
1545074092970,26,12,2.63671875E-6,23,100,0,151293,158111,18384,18711,19252,3961,691,2115,Tag0,unknown
1545074092970,26,-195,-4.28466796875E-5,23,100,0,151293,158111,18384,18711,19252,3961,691,2115,Tag0,unknown
1545074092970,26,-280,-6.15234375E-5,23,100,0,151293,158111,18384,18711,19252,3961,691,2115,Tag0,unknown
1545074092970,26,297,6.525878906250001E-5,23,100,0,151293,158111,18384,18711,19252,3961,691,2115,Tag0,unknown
1545074092970,26,292,6.416015625000001E-5,23,100,0,151293,158111,18384,18711,19252,3961,691,2115,Tag0,unknown
1545074092970,26,-285,-6.26220703125E-5,23,100,0,151293,158111,18384,18711,19252,3961,691,2115,Tag0,unknown
1545074092971,26,-513,-1.127197265625E-4,23,100,0,151293,158111,18384,18711,19252,3961,691,2115,Tag0,unknown
1545074092971,26,-135,-2.96630859375E-5,23,100,0,151293,158111,18384,18711,19252,3961,691,2115,Tag0,unknown
1545074092971,26,-70,-1.5380859375E-5,23,100,0,151293,158111,18384,18711,19252,3961,691,2115,Tag0,unknown
1545074092971,26,-13,-2.8564453125E-6,23,100,0,151293,158111,18384,18711,19252,3961,691,2115,Tag0,unknown
1545074092971,26,-307,-6.74560546875E-5,23,100,0,151293,158111,18384,18711,19252,3961,691,2115,Tag0,unknown
1545074092971,26,-546,-1.1997070312500001E-4,23,100,0,151293,158111,18384,18711,19252,3961,691,2115,Tag0,unknown
1545074092971,26,-182,-3.9990234375E-5,23,100,0,151293,158111,18384,18711,19252,3961,691,2115,Tag0,unknown
1545074092972,26,-103,-2.26318359375E-5,23,100,0,151293,158111,18384,18711,19252,3961,691,2115,Tag0,unknown
1545074092972,26,262,5.7568359375E-5,23,100,0,151293,158111,18384,18711,19252,3961,691,2115,Tag0,unknown
1545074092972,26,6,1.318359375E-6,23,100,0,151293,158111,18384,18711,19252,3961,691,2115,Tag0,unknown
1545074092972,26,-227,-4.98779296875E-5,23,100,0,151293,158111,18384,18711,19252,3961,691,2115,Tag0,unknown
1545074092972,26,-378,-8.3056640625E-5,23,100,0,151293,158111,18384,18711,19252,3961,691,2115,Tag0,unknown
1545074092972,26,-4,-8.7890625E-7,23,100,0,151293,158111,18384,18711,19252,3961,691,2115,Tag0,unknown
1545074092973,26,166,3.6474609375E-5,23,100,0,151293,158111,18384,18711,19252,3961,691,2115,Tag0,unknown
1545074092973,26,-109,-2.39501953125E-5,23,100,0,151293,158111,18384,18711,19252,3961,691,2115,Tag0,unknown
1545074092973,26,-172,-3.7792968750000005E-5,23,100,0,151293,158111,18384,18711,19252,3961,691,2115,Tag0,unknown
1545074092973,26,-138,-3.0322265625E-5,23,100,0,151293,158111,18384,18711,19252,3961,691,2115,Tag0,unknown
1545074092973,26,-44,-9.66796875E-6,23,100,0,151293,158111,18384,18711,19252,3961,691,2115,Tag0,unknown
1545074092986,26,178,3.9111328125E-5,23,100,0,151293,158111,18384,18711,19252,3961,691,2115,Tag0,unknown
1545074092987,26,-4,-8.7890625E-7,23,100,0,151293,158111,18384,18711,19252,3961,691,2115,Tag0,unknown
1545074092987,26,-273,-5.998535156250001E-5,23,100,0,151293,158111,18384,18711,19252,3961,691,2115,Tag0,unknown
1545074093012,26,-263,-5.7788085937500005E-5,23,100,0,151293,158111,18384,18711,19252,3961,691,2115,Tag0,unknown
1545074093012,26,311,6.833496093750001E-5,23,100,0,151293,158111,18384,18711,19252,3961,691,2115,Tag0,unknown
1545074093012,26,545,1.197509765625E-4,23,100,0,151293,158111,18384,18711,19252,3961,691,2115,Tag0,unknown
1545074093020,26,344,7.558593750000001E-5,23,100,0,151293,158111,18384,18711,19252,3961,691,2115,Tag0,unknown
1545074093020,26,-289,-6.35009765625E-5,23,100,0,151293,158111,18384,18711,19252,3961,691,2115,Tag0,unknown
1545074093020,26,-141,-3.09814453125E-5,23,100,0,151293,158111,18384,18711,19252,3961,691,2115,Tag0,unknown
1545074093020,26,118,2.5927734375E-5,23,100,0,151293,158111,18384,18711,19252,3961,691,2115,Tag0,unknown
1545074093020,26,129,2.8344726562500002E-5,23,100,0,151293,158111,18384,18711,19252,3961,691,2115,Tag0,unknown
1545074093021,26,-6,-1.318359375E-6,23,100,0,151293,158111,18384,18711,19252,3961,691,2115,Tag0,unknown
1545074093021,26,-334,-7.338867187500001E-5,23,100,0,151293,158111,18384,18711,19252,3961,691,2115,Tag0,unknown
1545074093021,26,-197,-4.32861328125E-5,23,100,0,151293,158111,18384,18711,19252,3961,691,2115,Tag0,unknown
1545074093021,26,42,9.228515625000002E-6,23,100,0,151293,158111,18384,18711,19252,3961,691,2115,Tag0,unknown
1545074093021,26,336,7.382812500000001E-5,23,100,0,151293,158111,18384,18711,19252,3961,691,2115,Tag0,unknown
1545074093021,26,-23,-5.0537109375E-6,23,100,0,151293,158111,18384,18711,19252,3961,691,2115,Tag0,unknown
1545074093021,26,-149,-3.27392578125E-5,23,100,0,151293,158111,18384,18711,19252,3961,691,2115,Tag0,unknown
1545074093022,26,-596,-1.3095703125E-4,23,100,0,151293,158111,18384,18711,19252,3961,691,2115,Tag0,unknown
1545074093022,26,-129,-2.8344726562500002E-5,23,100,0,151293,158111,18384,18711,19252,3961,691,2115,Tag0,unknown
1545074093022,26,-37,-8.1298828125E-6,23,100,0,151293,158111,18384,18711,19252,3961,691,2115,Tag0,unknown
1545074093022,26,-44,-9.66796875E-6,23,100,0,151293,158111,18384,18711,19252,3961,691,2115,Tag0,unknown
1545074093022,26,-357,-7.844238281250001E-5,23,100,0,151293,158111,18384,18711,19252,3961,691,2115,Tag0,unknown
1545074093022,26,-554,-1.2172851562500001E-4,23,100,0,151293,158111,18384,18711,19252,3961,691,2115,Tag0,unknown
1545074093022,26,-382,-8.3935546875E-5,23,100,0,151293,158111,18384,18711,19252,3961,691,2115,Tag0,unknown
1545074093036,26,-23,-5.0537109375E-6,23,100,0,151293,158111,18384,18711,19252,3961,691,2115,Tag0,unknown
1545074093036,26,282,6.1962890625E-5,23,100,0,151293,158111,18384,18711,19252,3961,691,2115,Tag0,unknown
1545074093039,26,-296,-6.50390625E-5,23,100,0,151293,158111,18384,18711,19252,3961,691,2115,Tag0,unknown
1545074093039,26,-552,-1.212890625E-4,23,100,0,151293,158111,18384,18711,19252,3961,691,2115,Tag0,unknown
1545074093039,26,-169,-3.7133789062499996E-5,23,100,0,151293,158111,18384,18711,19252,3961,691,2115,Tag0,unknown
1545074093040,26,-46,-1.0107421875E-5,23,100,0,151293,158111,18384,18711,19252,3961,691,2115,Tag0,unknown
1545074093040,26,329,7.229003906250001E-5,23,100,0,151293,158111,18384,18711,19252,3961,691,2115,Tag0,unknown
1545074093040,26,72,1.58203125E-5,23,100,0,151293,158111,18384,18711,19252,3961,691,2115,Tag0,unknown
1545074093040,26,-157,-3.44970703125E-5,23,100,0,151293,158111,18384,18711,19252,3961,691,2115,Tag0,unknown
1545074093068,26,-321,-7.053222656250001E-5,23,100,0,151293,158111,18384,18711,19252,3961,691,2115,Tag0,unknown
1545074093091,26,275,6.04248046875E-5,23,100,0,151293,158111,18384,18711,19252,3961,691,2115,Tag0,unknown
1545074093092,26,131,2.87841796875E-5,23,100,0,151293,158111,18384,18711,19252,3961,691,2115,Tag0,unknown
1545074093093,26,100,2.197265625E-5,23,100,0,151293,158111,18384,18711,19252,3961,691,2115,Tag0,unknown
1545074093093,26,-200,-4.39453125E-5,23,100,0,151293,158111,18384,18711,19252,3961,691,2115,Tag0,unknown
1545074093093,26,-166,-3.6474609375E-5,23,100,0,151293,158111,18384,18711,19252,3961,691,2115,Tag0,unknown
1545074093093,26,-96,-2.109375E-5,23,100,0,151293,158111,18384,18711,19252,3961,691,2115,Tag0,unknown
1545074093094,26,323,7.09716796875E-5,23,100,0,151293,158111,18384,18711,19252,3961,691,2115,Tag0,unknown
1545074093094,26,90,1.9775390625E-5,23,100,0,151293,158111,18384,18711,19252,3961,691,2115,Tag0,unknown
1545074093094,26,-195,-4.28466796875E-5,23,100,0,151293,158111,18384,18711,19252,3961,691,2115,Tag0,unknown
1545074093094,26,-186,-4.0869140625E-5,23,100,0,151293,158111,18384,18711,19252,3961,691,2115,Tag0,unknown
1545074093094,26,-126,-2.7685546875E-5,23,100,0,151293,158111,18384,18711,19252,3961,691,2115,Tag0,unknown
1545074093095,26,339,7.448730468750001E-5,23,100,0,151293,158111,18384,18711,19252,3961,691,2115,Tag0,unknown
1545074093095,26,121,2.6586914062500003E-5,23,100,0,151293,158111,18384,18711,19252,3961,691,2115,Tag0,unknown
1545074093096,26,-236,-5.185546875E-5,23,100,0,151293,158111,18384,18711,19252,3961,691,2115,Tag0,unknown
1545074093096,26,-583,-1.281005859375E-4,23,100,0,151293,158111,18384,18711,19252,3961,691,2115,Tag0,unknown
1545074093096,26,-306,-6.723632812500001E-5,23,100,0,151293,158111,18384,18711,19252,3961,691,2115,Tag0,unknown
1545074093097,26,-37,-8.1298828125E-6,23,100,0,151293,158111,18384,18711,19252,3961,691,2115,Tag0,unknown
1545074093097,26,81,1.77978515625E-5,23,100,0,151293,158111,18384,18711,19252,3961,691,2115,Tag0,unknown
1545074093097,26,-234,-5.1416015624999996E-5,23,100,0,151293,158111,18384,18711,19252,3961,691,2115,Tag0,unknown
1545074093097,26,-556,-1.2216796875000002E-4,23,100,0,151293,158111,18384,18711,19252,3961,691,2115,Tag0,unknown
1545074093098,26,5,1.0986328125E-6,23,100,0,151293,158111,18384,18711,19252,3961,691,2115,Tag0,unknown
1545074093098,26,338,7.426757812499999E-5,23,100,0,151293,158111,18384,18711,19252,3961,691,2115,Tag0,unknown
1545074093098,26,-10,-2.197265625E-6,23,100,0,151293,158111,18384,18711,19252,3961,691,2115,Tag0,unknown
1545074093098,26,-372,-8.173828125E-5,23,100,0,151293,158111,18384,18711,19252,3961,691,2115,Tag0,unknown
1545074093098,26,-525,-1.153564453125E-4,23,100,0,151293,158111,18384,18711,19252,3961,691,2115,Tag0,unknown
1545074093098,26,-286,-6.2841796875E-5,23,100,0,151293,158111,18384,18711,19252,3961,691,2115,Tag0,unknown
1545074093099,26,306,6.723632812500001E-5,23,100,0,151293,158111,18384,18711,19252,3961,691,2115,Tag0,unknown
1545074093107,26,272,5.9765625000000004E-5,23,100,0,151293,158111,18384,18711,19252,3961,691,2115,Tag0,unknown
1545074093108,26,-282,-6.1962890625E-5,23,100,0,151293,158111,18384,18711,19252,3961,691,2115,Tag0,unknown
1545074093152,26,-182,-3.9990234375E-5,23,100,0,151293,158111,18384,18711,19252,3961,691,2115,Tag0,unknown
1545074093153,26,22,4.833984375E-6,23,100,0,151293,158111,18384,18711,19252,3961,691,2115,Tag0,unknown
1545074093153,26,371,8.151855468750001E-5,23,100,0,151293,158111,18384,18711,19252,3961,691,2115,Tag0,unknown
1545074093153,26,368,8.0859375E-5,23,100,0,151293,158111,18384,18711,19252,3961,691,2115,Tag0,unknown
1545074093154,26,19,4.1748046875E-6,23,100,0,151293,158111,18384,18711,19252,3961,691,2115,Tag0,unknown
1545074093154,26,-213,-4.68017578125E-5,23,100,0,151293,158111,18384,18711,19252,3961,691,2115,Tag0,unknown
1545074093154,26,-323,-7.09716796875E-5,23,100,0,151293,158111,18384,18711,19252,3961,691,2115,Tag0,unknown
1545074093154,26,281,6.17431640625E-5,23,100,0,151293,158111,18384,18711,19252,3961,691,2115,Tag0,unknown
1545074093154,26,344,7.558593750000001E-5,23,100,0,151293,158111,18384,18711,19252,3961,691,2115,Tag0,unknown
1545074093155,26,34,7.4707031250000005E-6,23,100,0,151293,158111,18384,18711,19252,3961,691,2115,Tag0,unknown
1545074093155,26,-228,-5.0097656250000005E-5,23,100,0,151293,158111,18384,18711,19252,3961,691,2115,Tag0,unknown
1545074093155,26,-131,-2.87841796875E-5,23,100,0,151293,158111,18384,18711,19252,3961,691,2115,Tag0,unknown
1545074093155,26,-43,-9.448242187500001E-6,23,100,0,151293,158111,18384,18711,19252,3961,691,2115,Tag0,unknown
1545074093155,26,312,6.85546875E-5,23,100,0,151293,158111,18384,18711,19252,3961,691,2115,Tag0,unknown
1545074093156,26,12,2.63671875E-6,23,100,0,151293,158111,18384,18711,19252,3961,691,2115,Tag0,unknown
1545074093156,26,-537,-1.179931640625E-4,23,100,0,151293,158111,18384,18711,19252,3961,691,2115,Tag0,unknown
1545074093156,26,-226,-4.9658203125E-5,23,100,0,151293,158111,18384,18711,19252,3961,691,2115,Tag0,unknown
1545074093156,26,122,2.6806640625E-5,23,100,0,151293,158111,18384,18711,19252,3961,691,2115,Tag0,unknown
1545074093156,26,279,6.13037109375E-5,23,100,0,151293,158111,18384,18711,19252,3961,691,2115,Tag0,unknown
1545074093157,26,19,4.1748046875E-6,23,100,0,151293,158111,18384,18711,19252,3961,691,2115,Tag0,unknown
1545074093157,26,-538,-1.1821289062499999E-4,23,100,0,151293,158111,18384,18711,19252,3961,691,2115,Tag0,unknown
1545074093157,26,-249,-5.47119140625E-5,23,100,0,151293,158111,18384,18711,19252,3961,691,2115,Tag0,unknown
1545074093157,26,113,2.48291015625E-5,23,100,0,151293,158111,18384,18711,19252,3961,691,2115,Tag0,unknown
1545074093157,26,330,7.2509765625E-5,23,100,0,151293,158111,18384,18711,19252,3961,691,2115,Tag0,unknown
1545074093158,26,107,2.35107421875E-5,23,100,0,151293,158111,18384,18711,19252,3961,691,2115,Tag0,unknown
1545074093158,26,-230,-5.0537109375E-5,23,100,0,151293,158111,18384,18711,19252,3961,691,2115,Tag0,unknown
1545074093158,26,-521,-1.1447753906250001E-4,23,100,0,151293,158111,18384,18711,19252,3961,691,2115,Tag0,unknown
1545074093158,26,59,1.29638671875E-5,23,100,0,151293,158111,18384,18711,19252,3961,691,2115,Tag0,unknown
1545074093158,26,331,7.272949218750001E-5,23,100,0,151293,158111,18384,18711,19252,3961,691,2115,Tag0,unknown
1545074093171,26,-84,-1.8457031250000004E-5,23,100,0,151293,158111,18384,18711,19252,3961,691,2115,Tag0,unknown
1545074093171,26,-146,-3.2080078125000004E-5,23,100,0,151293,158111,18384,18711,19252,3961,691,2115,Tag0,unknown
1545074093190,26,-198,-4.3505859375000006E-5,23,100,0,151293,158111,18384,18711,19252,3961,691,2115,Tag0,unknown
1545074093206,26,102,2.2412109374999998E-5,23,100,0,151293,158111,18384,18711,19252,3961,691,2115,Tag0,unknown
1545074093207,26,132,2.900390625E-5,23,100,0,151293,158111,18384,18711,19252,3961,691,2115,Tag0,unknown
1545074093207,26,258,5.6689453125000004E-5,23,100,0,151293,158111,18384,18711,19252,3961,691,2115,Tag0,unknown
1545074093207,26,-347,-7.62451171875E-5,23,100,0,151293,158111,18384,18711,19252,3961,691,2115,Tag0,unknown
1545074093207,26,-221,-4.85595703125E-5,23,100,0,151293,158111,18384,18711,19252,3961,691,2115,Tag0,unknown
1545074093208,26,8,1.7578125E-6,23,100,0,151293,158111,18384,18711,19252,3961,691,2115,Tag0,unknown
1545074093208,26,307,6.74560546875E-5,23,100,0,151293,158111,18384,18711,19252,3961,691,2115,Tag0,unknown
1545074093208,26,-10,-2.197265625E-6,23,100,0,151293,158111,18384,18711,19252,3961,691,2115,Tag0,unknown
1545074093208,26,-323,-7.09716796875E-5,23,100,0,151293,158111,18384,18711,19252,3961,691,2115,Tag0,unknown
1545074093208,26,-221,-4.85595703125E-5,23,100,0,151293,158111,18384,18711,19252,3961,691,2115,Tag0,unknown
1545074093209,26,-269,-5.9106445312499996E-5,23,100,0,151293,158111,18384,18711,19252,3961,691,2115,Tag0,unknown
1545074093209,26,299,6.56982421875E-5,23,100,0,151293,158111,18384,18711,19252,3961,691,2115,Tag0,unknown
1545074093209,26,261,5.73486328125E-5,23,100,0,151293,158111,18384,18711,19252,3961,691,2115,Tag0,unknown
1545074093209,26,-349,-7.668457031250001E-5,23,100,0,151293,158111,18384,18711,19252,3961,691,2115,Tag0,unknown
1545074093210,26,-578,-1.27001953125E-4,23,100,0,151293,158111,18384,18711,19252,3961,691,2115,Tag0,unknown
1545074093210,26,-161,-3.53759765625E-5,23,100,0,151293,158111,18384,18711,19252,3961,691,2115,Tag0,unknown
1545074093210,26,-72,-1.58203125E-5,23,100,0,151293,158111,18384,18711,19252,3961,691,2115,Tag0,unknown
1545074093210,26,-39,-8.5693359375E-6,23,100,0,151293,158111,18384,18711,19252,3961,691,2115,Tag0,unknown
1545074093210,26,-340,-7.470703125E-5,23,100,0,151293,158111,18384,18711,19252,3961,691,2115,Tag0,unknown
1545074093211,26,-562,-1.23486328125E-4,23,100,0,151293,158111,18384,18711,19252,3961,691,2115,Tag0,unknown
1545074093211,26,-167,-3.6694335937500004E-5,23,100,0,151293,158111,18384,18711,19252,3961,691,2115,Tag0,unknown
1545074093211,26,-67,-1.4721679687500002E-5,23,100,0,151293,158111,18384,18711,19252,3961,691,2115,Tag0,unknown
1545074093211,26,280,6.15234375E-5,23,100,0,151293,158111,18384,18711,19252,3961,691,2115,Tag0,unknown
1545074093224,26,-260,-5.712890625E-5,23,100,0,151293,158111,18384,18711,19252,3961,691,2115,Tag0,unknown
1545074093225,26,-514,-1.12939453125E-4,23,100,0,151293,158111,18384,18711,19252,3961,691,2115,Tag0,unknown
1545074093226,26,-155,-3.40576171875E-5,23,100,0,151293,158111,18384,18711,19252,3961,691,2115,Tag0,unknown
1545074093226,26,-68,-1.4941406250000001E-5,23,100,0,151293,158111,18384,18711,19252,3961,691,2115,Tag0,unknown
1545074093227,26,331,7.272949218750001E-5,23,100,0,151293,158111,18384,18711,19252,3961,691,2115,Tag0,unknown
1545074093227,26,104,2.28515625E-5,23,100,0,151293,158111,18384,18711,19252,3961,691,2115,Tag0,unknown
1545074093275,26,-145,-3.18603515625E-5,23,100,0,151293,158111,18384,18711,19252,3961,691,2115,Tag0,unknown
1545074093275,26,-340,-7.470703125E-5,23,100,0,151293,158111,18384,18711,19252,3961,691,2115,Tag0,unknown
1545074093276,26,-7,-1.5380859375E-6,23,100,0,151293,158111,18384,18711,19252,3961,691,2115,Tag0,unknown
1545074093276,26,151,3.31787109375E-5,23,100,0,151293,158111,18384,18711,19252,3961,691,2115,Tag0,unknown
1545074093276,26,-111,-2.43896484375E-5,23,100,0,151293,158111,18384,18711,19252,3961,691,2115,Tag0,unknown
1545074093276,26,-187,-4.10888671875E-5,23,100,0,151293,158111,18384,18711,19252,3961,691,2115,Tag0,unknown
1545074093276,26,-211,-4.63623046875E-5,23,100,0,151293,158111,18384,18711,19252,3961,691,2115,Tag0,unknown
1545074093276,26,91,1.99951171875E-5,23,100,0,151293,158111,18384,18711,19252,3961,691,2115,Tag0,unknown
1545074093277,26,317,6.96533203125E-5,23,100,0,151293,158111,18384,18711,19252,3961,691,2115,Tag0,unknown
1545074093277,26,-122,-2.6806640625E-5,23,100,0,151293,158111,18384,18711,19252,3961,691,2115,Tag0,unknown
1545074093277,26,-171,-3.75732421875E-5,23,100,0,151293,158111,18384,18711,19252,3961,691,2115,Tag0,unknown
1545074093277,26,-219,-4.81201171875E-5,23,100,0,151293,158111,18384,18711,19252,3961,691,2115,Tag0,unknown
1545074093277,26,67,1.4721679687500002E-5,23,100,0,151293,158111,18384,18711,19252,3961,691,2115,Tag0,unknown
1545074093277,26,314,6.8994140625E-5,23,100,0,151293,158111,18384,18711,19252,3961,691,2115,Tag0,unknown
1545074093277,26,-104,-2.28515625E-5,23,100,0,151293,158111,18384,18711,19252,3961,691,2115,Tag0,unknown
1545074093278,26,-198,-4.3505859375000006E-5,23,100,0,151293,158111,18384,18711,19252,3961,691,2115,Tag0,unknown
1545074093278,26,-551,-1.210693359375E-4,23,100,0,151293,158111,18384,18711,19252,3961,691,2115,Tag0,unknown
1545074093278,26,-281,-6.17431640625E-5,23,100,0,151293,158111,18384,18711,19252,3961,691,2115,Tag0,unknown
1545074093279,26,267,5.86669921875E-5,23,100,0,151293,158111,18384,18711,19252,3961,691,2115,Tag0,unknown
1545074093279,26,-92,-2.021484375E-5,23,100,0,151293,158111,18384,18711,19252,3961,691,2115,Tag0,unknown
1545074093279,26,-164,-3.6035156249999995E-5,23,100,0,151293,158111,18384,18711,19252,3961,691,2115,Tag0,unknown
1545074093279,26,-549,-1.2062988281250001E-4,23,100,0,151293,158111,18384,18711,19252,3961,691,2115,Tag0,unknown
1545074093280,26,-297,-6.525878906250001E-5,23,100,0,151293,158111,18384,18711,19252,3961,691,2115,Tag0,unknown
1545074093287,26,285,6.26220703125E-5,23,100,0,151293,158111,18384,18711,19252,3961,691,2115,Tag0,unknown
1545074093287,26,-19,-4.1748046875E-6,23,100,0,151293,158111,18384,18711,19252,3961,691,2115,Tag0,unknown
1545074093287,26,-347,-7.62451171875E-5,23,100,0,151293,158111,18384,18711,19252,3961,691,2115,Tag0,unknown
1545074093287,26,-520,-1.142578125E-4,23,100,0,151293,158111,18384,18711,19252,3961,691,2115,Tag0,unknown
1545074093287,26,-328,-7.207031249999999E-5,23,100,0,151293,158111,18384,18711,19252,3961,691,2115,Tag0,unknown
1545074093287,26,262,5.7568359375E-5,23,100,0,151293,158111,18384,18711,19252,3961,691,2115,Tag0,unknown
1545074093287,26,273,5.998535156250001E-5,23,100,0,151293,158111,18384,18711,19252,3961,691,2115,Tag0,unknown
1545074093288,26,-283,-6.218261718750001E-5,23,100,0,151293,158111,18384,18711,19252,3961,691,2115,Tag0,unknown
1545074093309,26,-211,-4.63623046875E-5,23,100,0,151293,158111,18384,18711,19252,3961,691,2115,Tag0,unknown
1545074093322,26,-279,-6.13037109375E-5,23,100,0,151293,158111,18384,18711,19252,3961,691,2115,Tag0,unknown
1545074093322,26,337,7.40478515625E-5,23,100,0,151293,158111,18384,18711,19252,3961,691,2115,Tag0,unknown
1545074093322,26,373,8.19580078125E-5,23,100,0,151293,158111,18384,18711,19252,3961,691,2115,Tag0,unknown
1545074093323,26,39,8.5693359375E-6,23,100,0,151293,158111,18384,18711,19252,3961,691,2115,Tag0,unknown
1545074093323,26,-220,-4.833984375E-5,23,100,0,151293,158111,18384,18711,19252,3961,691,2115,Tag0,unknown
1545074093323,26,-357,-7.844238281250001E-5,23,100,0,151293,158111,18384,18711,19252,3961,691,2115,Tag0,unknown
1545074093323,26,-6,-1.318359375E-6,23,100,0,151293,158111,18384,18711,19252,3961,691,2115,Tag0,unknown
1545074093323,26,345,7.58056640625E-5,23,100,0,151293,158111,18384,18711,19252,3961,691,2115,Tag0,unknown
1545074093324,26,69,1.51611328125E-5,23,100,0,151293,158111,18384,18711,19252,3961,691,2115,Tag0,unknown
1545074093324,26,-187,-4.10888671875E-5,23,100,0,151293,158111,18384,18711,19252,3961,691,2115,Tag0,unknown
1545074093324,26,-376,-8.261718750000001E-5,23,100,0,151293,158111,18384,18711,19252,3961,691,2115,Tag0,unknown
1545074093324,26,-44,-9.66796875E-6,23,100,0,151293,158111,18384,18711,19252,3961,691,2115,Tag0,unknown
1545074093324,26,355,7.80029296875E-5,23,100,0,151293,158111,18384,18711,19252,3961,691,2115,Tag0,unknown
1545074093325,26,91,1.99951171875E-5,23,100,0,151293,158111,18384,18711,19252,3961,691,2115,Tag0,unknown
1545074093325,26,-221,-4.85595703125E-5,23,100,0,151293,158111,18384,18711,19252,3961,691,2115,Tag0,unknown
1545074093325,26,-225,-4.94384765625E-5,23,100,0,151293,158111,18384,18711,19252,3961,691,2115,Tag0,unknown
1545074093325,26,91,1.99951171875E-5,23,100,0,151293,158111,18384,18711,19252,3961,691,2115,Tag0,unknown
1545074093325,26,298,6.5478515625E-5,23,100,0,151293,158111,18384,18711,19252,3961,691,2115,Tag0,unknown
1545074093326,26,99,2.1752929687500003E-5,23,100,0,151293,158111,18384,18711,19252,3961,691,2115,Tag0,unknown
1545074093326,26,-200,-4.39453125E-5,23,100,0,151293,158111,18384,18711,19252,3961,691,2115,Tag0,unknown
1545074093326,26,-229,-5.03173828125E-5,23,100,0,151293,158111,18384,18711,19252,3961,691,2115,Tag0,unknown
1545074093339,26,81,1.77978515625E-5,23,100,0,151293,158111,18384,18711,19252,3961,691,2115,Tag0,unknown
1545074093339,26,343,7.53662109375E-5,23,100,0,151293,158111,18384,18711,19252,3961,691,2115,Tag0,unknown
1545074093340,26,-70,-1.5380859375E-5,23,100,0,151293,158111,18384,18711,19252,3961,691,2115,Tag0,unknown
1545074093340,26,-157,-3.44970703125E-5,23,100,0,151293,158111,18384,18711,19252,3961,691,2115,Tag0,unknown
1545074093341,26,-243,-5.33935546875E-5,23,100,0,151293,158111,18384,18711,19252,3961,691,2115,Tag0,unknown
1545074093341,26,57,1.2524414062500001E-5,23,100,0,151293,158111,18384,18711,19252,3961,691,2115,Tag0,unknown
1545074093341,26,369,8.10791015625E-5,23,100,0,151293,158111,18384,18711,19252,3961,691,2115,Tag0,unknown
1545074093342,26,277,6.0864257812500005E-5,23,100,0,151293,158111,18384,18711,19252,3961,691,2115,Tag0,unknown
1545074093342,26,-281,-6.17431640625E-5,23,100,0,151293,158111,18384,18711,19252,3961,691,2115,Tag0,unknown
1545074093381,26,-130,-2.8564453125E-5,23,100,0,151293,158111,18384,18711,19252,3961,691,2115,Tag0,unknown
1545074093382,26,123,2.70263671875E-5,23,100,0,151293,158111,18384,18711,19252,3961,691,2115,Tag0,unknown
1545074093382,26,170,3.7353515625E-5,23,100,0,151293,158111,18384,18711,19252,3961,691,2115,Tag0,unknown
1545074093382,26,332,7.294921875E-5,23,100,0,151293,158111,18384,18711,19252,3961,691,2115,Tag0,unknown
1545074093382,26,-284,-6.240234375E-5,23,100,0,151293,158111,18384,18711,19252,3961,691,2115,Tag0,unknown
1545074093383,26,-214,-4.7021484375E-5,23,100,0,151293,158111,18384,18711,19252,3961,691,2115,Tag0,unknown
1545074093383,26,-276,-6.064453125E-5,23,100,0,151293,158111,18384,18711,19252,3961,691,2115,Tag0,unknown
1545074093383,26,309,6.78955078125E-5,23,100,0,151293,158111,18384,18711,19252,3961,691,2115,Tag0,unknown
1545074093383,26,285,6.26220703125E-5,23,100,0,151293,158111,18384,18711,19252,3961,691,2115,Tag0,unknown
1545074093383,26,-294,-6.4599609375E-5,23,100,0,151293,158111,18384,18711,19252,3961,691,2115,Tag0,unknown
1545074093383,26,-234,-5.1416015624999996E-5,23,100,0,151293,158111,18384,18711,19252,3961,691,2115,Tag0,unknown
1545074093384,26,-309,-6.78955078125E-5,23,100,0,151293,158111,18384,18711,19252,3961,691,2115,Tag0,unknown
1545074093384,26,289,6.35009765625E-5,23,100,0,151293,158111,18384,18711,19252,3961,691,2115,Tag0,unknown
1545074093384,26,305,6.70166015625E-5,23,100,0,151293,158111,18384,18711,19252,3961,691,2115,Tag0,unknown
1545074093384,26,-286,-6.2841796875E-5,23,100,0,151293,158111,18384,18711,19252,3961,691,2115,Tag0,unknown
1545074093384,26,-533,-1.171142578125E-4,23,100,0,151293,158111,18384,18711,19252,3961,691,2115,Tag0,unknown
1545074093388,26,-145,-3.18603515625E-5,23,100,0,151293,158111,18384,18711,19252,3961,691,2115,Tag0,unknown
1545074093388,26,-56,-1.23046875E-5,23,100,0,151293,158111,18384,18711,19252,3961,691,2115,Tag0,unknown
1545074093389,26,268,5.8886718750000006E-5,23,100,0,151293,158111,18384,18711,19252,3961,691,2115,Tag0,unknown
1545074093389,26,-274,-6.0205078124999997E-5,23,100,0,151293,158111,18384,18711,19252,3961,691,2115,Tag0,unknown
1545074093389,26,-518,-1.13818359375E-4,23,100,0,151293,158111,18384,18711,19252,3961,691,2115,Tag0,unknown
1545074093389,26,-157,-3.44970703125E-5,23,100,0,151293,158111,18384,18711,19252,3961,691,2115,Tag0,unknown
1545074093389,26,-55,-1.20849609375E-5,23,100,0,151293,158111,18384,18711,19252,3961,691,2115,Tag0,unknown
1545074093390,26,343,7.53662109375E-5,23,100,0,151293,158111,18384,18711,19252,3961,691,2115,Tag0,unknown
1545074093390,26,83,1.82373046875E-5,23,100,0,151293,158111,18384,18711,19252,3961,691,2115,Tag0,unknown
1545074093405,26,-210,-4.6142578125E-5,23,100,0,151293,158111,18384,18711,19252,3961,691,2115,Tag0,unknown
1545074093405,26,-163,-3.5815429687500006E-5,23,100,0,151293,158111,18384,18711,19252,3961,691,2115,Tag0,unknown
1545074093406,26,-56,-1.23046875E-5,23,100,0,151293,158111,18384,18711,19252,3961,691,2115,Tag0,unknown
1545074093406,26,148,3.251953125E-5,23,100,0,151293,158111,18384,18711,19252,3961,691,2115,Tag0,unknown
1545074093406,26,-77,-1.69189453125E-5,23,100,0,151293,158111,18384,18711,19252,3961,691,2115,Tag0,unknown
1545074093406,26,-378,-8.3056640625E-5,23,100,0,151293,158111,18384,18711,19252,3961,691,2115,Tag0,unknown
1545074093431,26,-362,-7.954101562500001E-5,23,100,0,151293,158111,18384,18711,19252,3961,691,2115,Tag0,unknown
1545074093440,26,-8,-1.7578125E-6,23,100,0,151293,158111,18384,18711,19252,3961,691,2115,Tag0,unknown
1545074093440,26,217,4.76806640625E-5,23,100,0,151293,158111,18384,18711,19252,3961,691,2115,Tag0,unknown
1545074093440,26,-12,-2.63671875E-6,23,100,0,151293,158111,18384,18711,19252,3961,691,2115,Tag0,unknown
1545074093456,26,-133,-2.92236328125E-5,23,100,0,151293,158111,18384,18711,19252,3961,691,2115,Tag0,unknown
1545074093456,26,-219,-4.81201171875E-5,23,100,0,151293,158111,18384,18711,19252,3961,691,2115,Tag0,unknown
1545074093456,26,65,1.42822265625E-5,23,100,0,151293,158111,18384,18711,19252,3961,691,2115,Tag0,unknown
1545074093457,26,316,6.943359375000001E-5,23,100,0,151293,158111,18384,18711,19252,3961,691,2115,Tag0,unknown
1545074093457,26,-95,-2.08740234375E-5,23,100,0,151293,158111,18384,18711,19252,3961,691,2115,Tag0,unknown
1545074093457,26,-151,-3.31787109375E-5,23,100,0,151293,158111,18384,18711,19252,3961,691,2115,Tag0,unknown
1545074093457,26,-219,-4.81201171875E-5,23,100,0,151293,158111,18384,18711,19252,3961,691,2115,Tag0,unknown
1545074093457,26,61,1.34033203125E-5,23,100,0,151293,158111,18384,18711,19252,3961,691,2115,Tag0,unknown
1545074093458,26,345,7.58056640625E-5,23,100,0,151293,158111,18384,18711,19252,3961,691,2115,Tag0,unknown
1545074093458,26,-40,-8.7890625E-6,23,100,0,151293,158111,18384,18711,19252,3961,691,2115,Tag0,unknown
1545074093458,26,-153,-3.3618164062500004E-5,23,100,0,151293,158111,18384,18711,19252,3961,691,2115,Tag0,unknown
1545074093458,26,-564,-1.2392578125E-4,23,100,0,151293,158111,18384,18711,19252,3961,691,2115,Tag0,unknown
1545074093458,26,-328,-7.207031249999999E-5,23,100,0,151293,158111,18384,18711,19252,3961,691,2115,Tag0,unknown
1545074093459,26,-7,-1.5380859375E-6,23,100,0,151293,158111,18384,18711,19252,3961,691,2115,Tag0,unknown
1545074093459,26,-45,-9.8876953125E-6,23,100,0,151293,158111,18384,18711,19252,3961,691,2115,Tag0,unknown
1545074093459,26,-360,-7.91015625E-5,23,100,0,151293,158111,18384,18711,19252,3961,691,2115,Tag0,unknown
1545074093459,26,-537,-1.179931640625E-4,23,100,0,151293,158111,18384,18711,19252,3961,691,2115,Tag0,unknown
1545074093459,26,-339,-7.448730468750001E-5,23,100,0,151293,158111,18384,18711,19252,3961,691,2115,Tag0,unknown
1545074093460,26,267,5.86669921875E-5,23,100,0,151293,158111,18384,18711,19252,3961,691,2115,Tag0,unknown
1545074093472,26,279,6.13037109375E-5,23,100,0,151293,158111,18384,18711,19252,3961,691,2115,Tag0,unknown
1545074093473,26,-307,-6.74560546875E-5,23,100,0,151293,158111,18384,18711,19252,3961,691,2115,Tag0,unknown
1545074093474,26,-520,-1.142578125E-4,23,100,0,151293,158111,18384,18711,19252,3961,691,2115,Tag0,unknown
1545074093474,26,-355,-7.80029296875E-5,23,100,0,151293,158111,18384,18711,19252,3961,691,2115,Tag0,unknown
1545074093474,26,261,5.73486328125E-5,23,100,0,151293,158111,18384,18711,19252,3961,691,2115,Tag0,unknown
1545074093475,26,333,7.316894531249999E-5,23,100,0,151293,158111,18384,18711,19252,3961,691,2115,Tag0,unknown
1545074093475,26,72,1.58203125E-5,23,100,0,151293,158111,18384,18711,19252,3961,691,2115,Tag0,unknown
1545074093475,26,-381,-8.371582031250001E-5,23,100,0,151293,158111,18384,18711,19252,3961,691,2115,Tag0,unknown
1545074093501,26,11,2.4169921875E-6,23,100,0,151293,158111,18384,18711,19252,3961,691,2115,Tag0,unknown
1545074093501,26,360,7.91015625E-5,23,100,0,151293,158111,18384,18711,19252,3961,691,2115,Tag0,unknown
1545074093501,26,179,3.93310546875E-5,23,100,0,151293,158111,18384,18711,19252,3961,691,2115,Tag0,unknown
1545074093502,26,108,2.3730468750000002E-5,23,100,0,151293,158111,18384,18711,19252,3961,691,2115,Tag0,unknown
1545074093502,26,-201,-4.41650390625E-5,23,100,0,151293,158111,18384,18711,19252,3961,691,2115,Tag0,unknown
1545074093502,26,-156,-3.427734375E-5,23,100,0,151293,158111,18384,18711,19252,3961,691,2115,Tag0,unknown
1545074093502,26,-77,-1.69189453125E-5,23,100,0,151293,158111,18384,18711,19252,3961,691,2115,Tag0,unknown
1545074093502,26,338,7.426757812499999E-5,23,100,0,151293,158111,18384,18711,19252,3961,691,2115,Tag0,unknown
1545074093502,26,102,2.2412109374999998E-5,23,100,0,151293,158111,18384,18711,19252,3961,691,2115,Tag0,unknown
1545074093503,26,-183,-4.02099609375E-5,23,100,0,151293,158111,18384,18711,19252,3961,691,2115,Tag0,unknown
1545074093503,26,-171,-3.75732421875E-5,23,100,0,151293,158111,18384,18711,19252,3961,691,2115,Tag0,unknown
1545074093503,26,-110,-2.4169921875E-5,23,100,0,151293,158111,18384,18711,19252,3961,691,2115,Tag0,unknown
1545074093503,26,341,7.492675781250002E-5,23,100,0,151293,158111,18384,18711,19252,3961,691,2115,Tag0,unknown
1545074093503,26,-128,-2.8125E-5,23,100,0,151293,158111,18384,18711,19252,3961,691,2115,Tag0,unknown
1545074093504,26,-195,-4.28466796875E-5,23,100,0,151293,158111,18384,18711,19252,3961,691,2115,Tag0,unknown
1545074093504,26,-233,-5.1196289062500006E-5,23,100,0,151293,158111,18384,18711,19252,3961,691,2115,Tag0,unknown
1545074093504,26,58,1.2744140625E-5,23,100,0,151293,158111,18384,18711,19252,3961,691,2115,Tag0,unknown
1545074093506,26,291,6.39404296875E-5,23,100,0,151293,158111,18384,18711,19252,3961,691,2115,Tag0,unknown
1545074093507,26,-125,-2.74658203125E-5,23,100,0,151293,158111,18384,18711,19252,3961,691,2115,Tag0,unknown
1545074093559,26,-165,-3.62548828125E-5,23,100,0,151293,158111,18384,18711,19252,3961,691,2115,Tag0,unknown
1545074093560,26,-210,-4.6142578125E-5,23,100,0,151293,158111,18384,18711,19252,3961,691,2115,Tag0,unknown
1545074093560,26,97,2.13134765625E-5,23,100,0,151293,158111,18384,18711,19252,3961,691,2115,Tag0,unknown
1545074093573,26,131,2.87841796875E-5,23,100,0,151293,158111,18384,18711,19252,3961,691,2115,Tag0,unknown
1545074093574,26,-5,-1.0986328125E-6,23,100,0,151293,158111,18384,18711,19252,3961,691,2115,Tag0,unknown
1545074093574,26,-358,-7.8662109375E-5,23,100,0,151293,158111,18384,18711,19252,3961,691,2115,Tag0,unknown
1545074093574,26,-225,-4.94384765625E-5,23,100,0,151293,158111,18384,18711,19252,3961,691,2115,Tag0,unknown
1545074093575,26,23,5.0537109375E-6,23,100,0,151293,158111,18384,18711,19252,3961,691,2115,Tag0,unknown
1545074093575,26,321,7.053222656250001E-5,23,100,0,151293,158111,18384,18711,19252,3961,691,2115,Tag0,unknown
1545074093575,26,-25,-5.4931640625E-6,23,100,0,151293,158111,18384,18711,19252,3961,691,2115,Tag0,unknown
1545074093576,26,-346,-7.6025390625E-5,23,100,0,151293,158111,18384,18711,19252,3961,691,2115,Tag0,unknown
1545074093576,26,-226,-4.9658203125E-5,23,100,0,151293,158111,18384,18711,19252,3961,691,2115,Tag0,unknown
1545074093576,26,-263,-5.7788085937500005E-5,23,100,0,151293,158111,18384,18711,19252,3961,691,2115,Tag0,unknown
1545074093577,26,301,6.613769531250001E-5,23,100,0,151293,158111,18384,18711,19252,3961,691,2115,Tag0,unknown
1545074093577,26,-11,-2.4169921875E-6,23,100,0,151293,158111,18384,18711,19252,3961,691,2115,Tag0,unknown
1545074093577,26,-376,-8.261718750000001E-5,23,100,0,151293,158111,18384,18711,19252,3961,691,2115,Tag0,unknown
1545074093577,26,-589,-1.294189453125E-4,23,100,0,151293,158111,18384,18711,19252,3961,691,2115,Tag0,unknown
1545074093578,26,-164,-3.6035156249999995E-5,23,100,0,151293,158111,18384,18711,19252,3961,691,2115,Tag0,unknown
1545074093578,26,-73,-1.6040039062500002E-5,23,100,0,151293,158111,18384,18711,19252,3961,691,2115,Tag0,unknown
1545074093578,26,-29,-6.3720703125E-6,23,100,0,151293,158111,18384,18711,19252,3961,691,2115,Tag0,unknown
1545074093578,26,-314,-6.8994140625E-5,23,100,0,151293,158111,18384,18711,19252,3961,691,2115,Tag0,unknown
1545074093578,26,-535,-1.175537109375E-4,23,100,0,151293,158111,18384,18711,19252,3961,691,2115,Tag0,unknown
1545074093578,26,-156,-3.427734375E-5,23,100,0,151293,158111,18384,18711,19252,3961,691,2115,Tag0,unknown
1545074093579,26,-85,-1.86767578125E-5,23,100,0,151293,158111,18384,18711,19252,3961,691,2115,Tag0,unknown
1545074093579,26,-20,-4.39453125E-6,23,100,0,151293,158111,18384,18711,19252,3961,691,2115,Tag0,unknown
1545074093579,26,-324,-7.119140625E-5,23,100,0,151293,158111,18384,18711,19252,3961,691,2115,Tag0,unknown
1545074093579,26,-597,-1.3117675781250003E-4,23,100,0,151293,158111,18384,18711,19252,3961,691,2115,Tag0,unknown
1545074093579,26,-518,-1.13818359375E-4,23,100,0,151293,158111,18384,18711,19252,3961,691,2115,Tag0,unknown
1545074093580,26,87,1.91162109375E-5,23,100,0,151293,158111,18384,18711,19252,3961,691,2115,Tag0,unknown
1545074093580,26,-25,-5.4931640625E-6,23,100,0,151293,158111,18384,18711,19252,3961,691,2115,Tag0,unknown
1545074093580,26,-268,-5.8886718750000006E-5,23,100,0,151293,158111,18384,18711,19252,3961,691,2115,Tag0,unknown
1545074093587,26,-534,-1.17333984375E-4,23,100,0,151293,158111,18384,18711,19252,3961,691,2115,Tag0,unknown
1545074093587,26,-220,-4.833984375E-5,23,100,0,151293,158111,18384,18711,19252,3961,691,2115,Tag0,unknown
1545074093587,26,-127,-2.79052734375E-5,23,100,0,151293,158111,18384,18711,19252,3961,691,2115,Tag0,unknown
1545074093587,26,313,6.87744140625E-5,23,100,0,151293,158111,18384,18711,19252,3961,691,2115,Tag0,unknown
1545074093588,26,72,1.58203125E-5,23,100,0,151293,158111,18384,18711,19252,3961,691,2115,Tag0,unknown
1545074093588,26,-237,-5.2075195312500004E-5,23,100,0,151293,158111,18384,18711,19252,3961,691,2115,Tag0,unknown
1545074093588,26,-229,-5.03173828125E-5,23,100,0,151293,158111,18384,18711,19252,3961,691,2115,Tag0,unknown
1545074093588,26,91,1.99951171875E-5,23,100,0,151293,158111,18384,18711,19252,3961,691,2115,Tag0,unknown
1545074093589,26,299,6.56982421875E-5,23,100,0,151293,158111,18384,18711,19252,3961,691,2115,Tag0,unknown
1545074093618,26,106,2.3291015625000003E-5,23,100,0,151293,158111,18384,18711,19252,3961,691,2115,Tag0,unknown
1545074093618,26,-182,-3.9990234375E-5,23,100,0,151293,158111,18384,18711,19252,3961,691,2115,Tag0,unknown
1545074093618,26,-182,-3.9990234375E-5,23,100,0,151293,158111,18384,18711,19252,3961,691,2115,Tag0,unknown
1545074093618,26,-94,-2.0654296875000002E-5,23,100,0,151293,158111,18384,18711,19252,3961,691,2115,Tag0,unknown
1545074093637,26,173,3.80126953125E-5,23,100,0,151293,158111,18384,18711,19252,3961,691,2115,Tag0,unknown
1545074093638,26,-6,-1.318359375E-6,23,100,0,151293,158111,18384,18711,19252,3961,691,2115,Tag0,unknown
1545074093638,26,-370,-8.1298828125E-5,23,100,0,151293,158111,18384,18711,19252,3961,691,2115,Tag0,unknown
1545074093638,26,-213,-4.68017578125E-5,23,100,0,151293,158111,18384,18711,19252,3961,691,2115,Tag0,unknown
1545074093638,26,54,1.1865234375000001E-5,23,100,0,151293,158111,18384,18711,19252,3961,691,2115,Tag0,unknown
1545074093638,26,330,7.2509765625E-5,23,100,0,151293,158111,18384,18711,19252,3961,691,2115,Tag0,unknown
1545074093639,26,-46,-1.0107421875E-5,23,100,0,151293,158111,18384,18711,19252,3961,691,2115,Tag0,unknown
1545074093639,26,-370,-8.1298828125E-5,23,100,0,151293,158111,18384,18711,19252,3961,691,2115,Tag0,unknown
1545074093639,26,-221,-4.85595703125E-5,23,100,0,151293,158111,18384,18711,19252,3961,691,2115,Tag0,unknown
1545074093639,26,22,4.833984375E-6,23,100,0,151293,158111,18384,18711,19252,3961,691,2115,Tag0,unknown
1545074093639,26,326,7.163085937500001E-5,23,100,0,151293,158111,18384,18711,19252,3961,691,2115,Tag0,unknown
1545074093640,26,-14,-3.076171875E-6,23,100,0,151293,158111,18384,18711,19252,3961,691,2115,Tag0,unknown
1545074093640,26,-129,-2.8344726562500002E-5,23,100,0,151293,158111,18384,18711,19252,3961,691,2115,Tag0,unknown
1545074093640,26,-580,-1.2744140625E-4,23,100,0,151293,158111,18384,18711,19252,3961,691,2115,Tag0,unknown
1545074093640,26,-377,-8.28369140625E-5,23,100,0,151293,158111,18384,18711,19252,3961,691,2115,Tag0,unknown
1545074093656,26,-29,-6.3720703125E-6,23,100,0,151293,158111,18384,18711,19252,3961,691,2115,Tag0,unknown
1545074093656,26,-22,-4.833984375E-6,23,100,0,151293,158111,18384,18711,19252,3961,691,2115,Tag0,unknown
1545074093656,26,-331,-7.272949218750001E-5,23,100,0,151293,158111,18384,18711,19252,3961,691,2115,Tag0,unknown
1545074093656,26,-535,-1.175537109375E-4,23,100,0,151293,158111,18384,18711,19252,3961,691,2115,Tag0,unknown
1545074093657,26,-362,-7.954101562500001E-5,23,100,0,151293,158111,18384,18711,19252,3961,691,2115,Tag0,unknown
1545074093657,26,-3,-6.591796875E-7,23,100,0,151293,158111,18384,18711,19252,3961,691,2115,Tag0,unknown
1545074093671,26,307,6.74560546875E-5,23,100,0,151293,158111,18384,18711,19252,3961,691,2115,Tag0,unknown
1545074093699,26,-262,-5.7568359375E-5,23,100,0,151293,158111,18384,18711,19252,3961,691,2115,Tag0,unknown
1545074093699,26,-513,-1.127197265625E-4,23,100,0,151293,158111,18384,18711,19252,3961,691,2115,Tag0,unknown
1545074093700,26,-131,-2.87841796875E-5,23,100,0,151293,158111,18384,18711,19252,3961,691,2115,Tag0,unknown
1545074093700,26,-35,-7.6904296875E-6,23,100,0,151293,158111,18384,18711,19252,3961,691,2115,Tag0,unknown
1545074093700,26,310,6.8115234375E-5,23,100,0,151293,158111,18384,18711,19252,3961,691,2115,Tag0,unknown
1545074093700,26,29,6.3720703125E-6,23,100,0,151293,158111,18384,18711,19252,3961,691,2115,Tag0,unknown
1545074093701,26,-211,-4.63623046875E-5,23,100,0,151293,158111,18384,18711,19252,3961,691,2115,Tag0,unknown
1545074093701,26,-373,-8.19580078125E-5,23,100,0,151293,158111,18384,18711,19252,3961,691,2115,Tag0,unknown
1545074093701,26,-25,-5.4931640625E-6,23,100,0,151293,158111,18384,18711,19252,3961,691,2115,Tag0,unknown
1545074093701,26,375,8.23974609375E-5,23,100,0,151293,158111,18384,18711,19252,3961,691,2115,Tag0,unknown
1545074093702,26,105,2.30712890625E-5,23,100,0,151293,158111,18384,18711,19252,3961,691,2115,Tag0,unknown
1545074093702,26,-211,-4.63623046875E-5,23,100,0,151293,158111,18384,18711,19252,3961,691,2115,Tag0,unknown
1545074093702,26,-205,-4.50439453125E-5,23,100,0,151293,158111,18384,18711,19252,3961,691,2115,Tag0,unknown
1545074093702,26,101,2.2192382812500002E-5,23,100,0,151293,158111,18384,18711,19252,3961,691,2115,Tag0,unknown
1545074093702,26,289,6.35009765625E-5,23,100,0,151293,158111,18384,18711,19252,3961,691,2115,Tag0,unknown
1545074093703,26,87,1.91162109375E-5,23,100,0,151293,158111,18384,18711,19252,3961,691,2115,Tag0,unknown
1545074093703,26,-182,-3.9990234375E-5,23,100,0,151293,158111,18384,18711,19252,3961,691,2115,Tag0,unknown
1545074093703,26,-173,-3.80126953125E-5,23,100,0,151293,158111,18384,18711,19252,3961,691,2115,Tag0,unknown
1545074093703,26,-119,-2.6147460937500004E-5,23,100,0,151293,158111,18384,18711,19252,3961,691,2115,Tag0,unknown
1545074093704,26,347,7.62451171875E-5,23,100,0,151293,158111,18384,18711,19252,3961,691,2115,Tag0,unknown
1545074093704,26,-107,-2.35107421875E-5,23,100,0,151293,158111,18384,18711,19252,3961,691,2115,Tag0,unknown
1545074093704,26,-193,-4.2407226562500005E-5,23,100,0,151293,158111,18384,18711,19252,3961,691,2115,Tag0,unknown
1545074093705,26,-521,-1.1447753906250001E-4,23,100,0,151293,158111,18384,18711,19252,3961,691,2115,Tag0,unknown
1545074093705,26,18,3.955078125E-6,23,100,0,151293,158111,18384,18711,19252,3961,691,2115,Tag0,unknown
1545074093705,26,289,6.35009765625E-5,23,100,0,151293,158111,18384,18711,19252,3961,691,2115,Tag0,unknown
1545074093705,26,-95,-2.08740234375E-5,23,100,0,151293,158111,18384,18711,19252,3961,691,2115,Tag0,unknown
1545074093706,26,-163,-3.5815429687500006E-5,23,100,0,151293,158111,18384,18711,19252,3961,691,2115,Tag0,unknown
1545074093706,26,-520,-1.142578125E-4,23,100,0,151293,158111,18384,18711,19252,3961,691,2115,Tag0,unknown
1545074093706,26,-257,-5.64697265625E-5,23,100,0,151293,158111,18384,18711,19252,3961,691,2115,Tag0,unknown
1545074093706,26,312,6.85546875E-5,23,100,0,151293,158111,18384,18711,19252,3961,691,2115,Tag0,unknown
1545074093706,26,-24,-5.2734375E-6,23,100,0,151293,158111,18384,18711,19252,3961,691,2115,Tag0,unknown
1545074093706,26,-364,-7.998046875E-5,23,100,0,151293,158111,18384,18711,19252,3961,691,2115,Tag0,unknown
1545074093707,26,-529,-1.162353515625E-4,23,100,0,151293,158111,18384,18711,19252,3961,691,2115,Tag0,unknown
1545074093707,26,-301,-6.613769531250001E-5,23,100,0,151293,158111,18384,18711,19252,3961,691,2115,Tag0,unknown
1545074093707,26,295,6.48193359375E-5,23,100,0,151293,158111,18384,18711,19252,3961,691,2115,Tag0,unknown
1545074093707,26,278,6.108398437500001E-5,23,100,0,151293,158111,18384,18711,19252,3961,691,2115,Tag0,unknown
1545074093707,26,-277,-6.0864257812500005E-5,23,100,0,151293,158111,18384,18711,19252,3961,691,2115,Tag0,unknown
1545074093730,26,-185,-4.06494140625E-5,23,100,0,151293,158111,18384,18711,19252,3961,691,2115,Tag0,unknown
1545074093738,26,11,2.4169921875E-6,23,100,0,151293,158111,18384,18711,19252,3961,691,2115,Tag0,unknown
1545074093738,26,355,7.80029296875E-5,23,100,0,151293,158111,18384,18711,19252,3961,691,2115,Tag0,unknown
1545074093738,26,357,7.844238281250001E-5,23,100,0,151293,158111,18384,18711,19252,3961,691,2115,Tag0,unknown
1545074093739,26,19,4.1748046875E-6,23,100,0,151293,158111,18384,18711,19252,3961,691,2115,Tag0,unknown
1545074093739,26,-212,-4.6582031250000006E-5,23,100,0,151293,158111,18384,18711,19252,3961,691,2115,Tag0,unknown
1545074093739,26,-339,-7.448730468750001E-5,23,100,0,151293,158111,18384,18711,19252,3961,691,2115,Tag0,unknown
1545074093755,26,257,5.64697265625E-5,23,100,0,151293,158111,18384,18711,19252,3961,691,2115,Tag0,unknown
1545074093755,26,329,7.229003906250001E-5,23,100,0,151293,158111,18384,18711,19252,3961,691,2115,Tag0,unknown
1545074093755,26,42,9.228515625000002E-6,23,100,0,151293,158111,18384,18711,19252,3961,691,2115,Tag0,unknown
1545074093755,26,-200,-4.39453125E-5,23,100,0,151293,158111,18384,18711,19252,3961,691,2115,Tag0,unknown
1545074093755,26,-358,-7.8662109375E-5,23,100,0,151293,158111,18384,18711,19252,3961,691,2115,Tag0,unknown
1545074093756,26,-14,-3.076171875E-6,23,100,0,151293,158111,18384,18711,19252,3961,691,2115,Tag0,unknown
1545074093756,26,344,7.558593750000001E-5,23,100,0,151293,158111,18384,18711,19252,3961,691,2115,Tag0,unknown
1545074093756,26,38,8.349609375E-6,23,100,0,151293,158111,18384,18711,19252,3961,691,2115,Tag0,unknown
1545074093756,26,-532,-1.1689453125E-4,23,100,0,151293,158111,18384,18711,19252,3961,691,2115,Tag0,unknown
1545074093757,26,-228,-5.0097656250000005E-5,23,100,0,151293,158111,18384,18711,19252,3961,691,2115,Tag0,unknown
1545074093757,26,123,2.70263671875E-5,23,100,0,151293,158111,18384,18711,19252,3961,691,2115,Tag0,unknown
1545074093757,26,308,6.767578125E-5,23,100,0,151293,158111,18384,18711,19252,3961,691,2115,Tag0,unknown
1545074093757,26,67,1.4721679687500002E-5,23,100,0,151293,158111,18384,18711,19252,3961,691,2115,Tag0,unknown
1545074093757,26,-244,-5.361328125E-5,23,100,0,151293,158111,18384,18711,19252,3961,691,2115,Tag0,unknown
1545074093758,26,-237,-5.2075195312500004E-5,23,100,0,151293,158111,18384,18711,19252,3961,691,2115,Tag0,unknown
1545074093758,26,101,2.2192382812500002E-5,23,100,0,151293,158111,18384,18711,19252,3961,691,2115,Tag0,unknown
1545074093758,26,327,7.18505859375E-5,23,100,0,151293,158111,18384,18711,19252,3961,691,2115,Tag0,unknown
1545074093758,26,117,2.5708007812499998E-5,23,100,0,151293,158111,18384,18711,19252,3961,691,2115,Tag0,unknown
1545074093759,26,-213,-4.68017578125E-5,23,100,0,151293,158111,18384,18711,19252,3961,691,2115,Tag0,unknown
1545074093759,26,-241,-5.29541015625E-5,23,100,0,151293,158111,18384,18711,19252,3961,691,2115,Tag0,unknown
1545074093759,26,90,1.9775390625E-5,23,100,0,151293,158111,18384,18711,19252,3961,691,2115,Tag0,unknown
1545074093759,26,379,8.32763671875E-5,23,100,0,151293,158111,18384,18711,19252,3961,691,2115,Tag0,unknown
1545074093759,26,-6,-1.318359375E-6,23,100,0,151293,158111,18384,18711,19252,3961,691,2115,Tag0,unknown
1545074093760,26,-313,-6.87744140625E-5,23,100,0,151293,158111,18384,18711,19252,3961,691,2115,Tag0,unknown
1545074093790,26,-132,-2.900390625E-5,23,100,0,151293,158111,18384,18711,19252,3961,691,2115,Tag0,unknown
1545074093805,26,-96,-2.109375E-5,23,100,0,151293,158111,18384,18711,19252,3961,691,2115,Tag0,unknown
1545074093805,26,212,4.6582031250000006E-5,23,100,0,151293,158111,18384,18711,19252,3961,691,2115,Tag0,unknown
1545074093805,26,363,7.97607421875E-5,23,100,0,151293,158111,18384,18711,19252,3961,691,2115,Tag0,unknown
1545074093806,26,17,3.7353515625000003E-6,23,100,0,151293,158111,18384,18711,19252,3961,691,2115,Tag0,unknown
1545074093806,26,-132,-2.900390625E-5,23,100,0,151293,158111,18384,18711,19252,3961,691,2115,Tag0,unknown
1545074093806,26,83,1.82373046875E-5,23,100,0,151293,158111,18384,18711,19252,3961,691,2115,Tag0,unknown
1545074093806,26,380,8.349609375E-5,23,100,0,151293,158111,18384,18711,19252,3961,691,2115,Tag0,unknown
1545074093806,26,311,6.833496093750001E-5,23,100,0,151293,158111,18384,18711,19252,3961,691,2115,Tag0,unknown
1545074093807,26,-266,-5.8447265625E-5,23,100,0,151293,158111,18384,18711,19252,3961,691,2115,Tag0,unknown
1545074093807,26,-171,-3.75732421875E-5,23,100,0,151293,158111,18384,18711,19252,3961,691,2115,Tag0,unknown
1545074093807,26,25,5.4931640625E-6,23,100,0,151293,158111,18384,18711,19252,3961,691,2115,Tag0,unknown
1545074093807,26,339,7.448730468750001E-5,23,100,0,151293,158111,18384,18711,19252,3961,691,2115,Tag0,unknown
1545074093807,26,301,6.613769531250001E-5,23,100,0,151293,158111,18384,18711,19252,3961,691,2115,Tag0,unknown
1545074093808,26,-302,-6.6357421875E-5,23,100,0,151293,158111,18384,18711,19252,3961,691,2115,Tag0,unknown
1545074093808,26,-526,-1.1557617187500001E-4,23,100,0,151293,158111,18384,18711,19252,3961,691,2115,Tag0,unknown
1545074093808,26,-377,-8.28369140625E-5,23,100,0,151293,158111,18384,18711,19252,3961,691,2115,Tag0,unknown
1545074093808,26,-41,-9.008789062499999E-6,23,100,0,151293,158111,18384,18711,19252,3961,691,2115,Tag0,unknown
1545074093809,26,259,5.69091796875E-5,23,100,0,151293,158111,18384,18711,19252,3961,691,2115,Tag0,unknown
1545074093809,26,-290,-6.3720703125E-5,23,100,0,151293,158111,18384,18711,19252,3961,691,2115,Tag0,unknown
1545074093809,26,-521,-1.1447753906250001E-4,23,100,0,151293,158111,18384,18711,19252,3961,691,2115,Tag0,unknown
1545074093809,26,-151,-3.31787109375E-5,23,100,0,151293,158111,18384,18711,19252,3961,691,2115,Tag0,unknown
1545074093809,26,-47,-1.0327148437500001E-5,23,100,0,151293,158111,18384,18711,19252,3961,691,2115,Tag0,unknown
1545074093809,26,332,7.294921875E-5,23,100,0,151293,158111,18384,18711,19252,3961,691,2115,Tag0,unknown
1545074093827,0,57,1.2524414062500001E-5,24,100,0,725157,119348,79080,139181,16753541,9691,5713,7802,Tag0,unknown
1545074093827,0,-221,-4.85595703125E-5,24,100,0,725157,119348,79080,139181,16753541,9691,5713,7802,Tag0,unknown
1545074093827,0,-163,-3.5815429687500006E-5,24,100,0,725157,119348,79080,139181,16753541,9691,5713,7802,Tag0,unknown
1545074093827,0,-73,-1.6040039062500002E-5,24,100,0,725157,119348,79080,139181,16753541,9691,5713,7802,Tag0,unknown
1545074093850,0,358,7.8662109375E-5,24,100,0,725157,119348,79080,139181,16753541,9691,5713,7802,Tag0,unknown
1545074093851,0,-119,-2.6147460937500004E-5,24,100,0,725157,119348,79080,139181,16753541,9691,5713,7802,Tag0,unknown
1545074093863,0,-129,-2.8344726562500002E-5,24,100,0,725157,119348,79080,139181,16753541,9691,5713,7802,Tag0,unknown
1545074093870,0,-344,-7.558593750000001E-5,24,100,0,725157,119348,79080,139181,16753541,9691,5713,7802,Tag0,unknown
1545074093870,0,-5,-1.0986328125E-6,24,100,0,725157,119348,79080,139181,16753541,9691,5713,7802,Tag0,unknown
1545074093870,0,196,4.306640625E-5,24,100,0,725157,119348,79080,139181,16753541,9691,5713,7802,Tag0,unknown
1545074093870,0,-22,-4.833984375E-6,24,100,0,725157,119348,79080,139181,16753541,9691,5713,7802,Tag0,unknown
1545074093871,0,-340,-7.470703125E-5,24,100,0,725157,119348,79080,139181,16753541,9691,5713,7802,Tag0,unknown
1545074093871,0,-130,-2.8564453125E-5,24,100,0,725157,119348,79080,139181,16753541,9691,5713,7802,Tag0,unknown
1545074093871,0,-108,-2.3730468750000002E-5,24,100,0,725157,119348,79080,139181,16753541,9691,5713,7802,Tag0,unknown
1545074093871,0,360,7.91015625E-5,24,100,0,725157,119348,79080,139181,16753541,9691,5713,7802,Tag0,unknown
1545074093871,0,-74,-1.6259765625E-5,24,100,0,725157,119348,79080,139181,16753541,9691,5713,7802,Tag0,unknown
1545074093872,0,-381,-8.371582031250001E-5,24,100,0,725157,119348,79080,139181,16753541,9691,5713,7802,Tag0,unknown
1545074093889,0,-188,-4.1308593750000004E-5,24,100,0,725157,119348,79080,139181,16753541,9691,5713,7802,Tag0,unknown
1545074093890,0,87,1.91162109375E-5,24,100,0,725157,119348,79080,139181,16753541,9691,5713,7802,Tag0,unknown
1545074093890,0,340,7.470703125E-5,24,100,0,725157,119348,79080,139181,16753541,9691,5713,7802,Tag0,unknown
1545074093890,0,-78,-1.7138671875E-5,24,100,0,725157,119348,79080,139181,16753541,9691,5713,7802,Tag0,unknown
1545074093890,0,-189,-4.15283203125E-5,24,100,0,725157,119348,79080,139181,16753541,9691,5713,7802,Tag0,unknown
1545074093891,0,-570,-1.25244140625E-4,24,100,0,725157,119348,79080,139181,16753541,9691,5713,7802,Tag0,unknown
1545074093891,0,-310,-6.8115234375E-5,24,100,0,725157,119348,79080,139181,16753541,9691,5713,7802,Tag0,unknown
1545074093891,0,260,5.712890625E-5,24,100,0,725157,119348,79080,139181,16753541,9691,5713,7802,Tag0,unknown
1545074093891,0,-76,-1.669921875E-5,24,100,0,725157,119348,79080,139181,16753541,9691,5713,7802,Tag0,unknown
1545074093891,0,-137,-3.0102539062499998E-5,24,100,0,725157,119348,79080,139181,16753541,9691,5713,7802,Tag0,unknown
1545074093891,0,-525,-1.153564453125E-4,24,100,0,725157,119348,79080,139181,16753541,9691,5713,7802,Tag0,unknown
1545074093892,0,-294,-6.4599609375E-5,24,100,0,725157,119348,79080,139181,16753541,9691,5713,7802,Tag0,unknown
1545074093892,0,289,6.35009765625E-5,24,100,0,725157,119348,79080,139181,16753541,9691,5713,7802,Tag0,unknown
1545074093892,0,261,5.73486328125E-5,24,100,0,725157,119348,79080,139181,16753541,9691,5713,7802,Tag0,unknown
1545074093892,0,-321,-7.053222656250001E-5,24,100,0,725157,119348,79080,139181,16753541,9691,5713,7802,Tag0,unknown
1545074093892,0,-250,-5.4931640625E-5,24,100,0,725157,119348,79080,139181,16753541,9691,5713,7802,Tag0,unknown
1545074093893,0,-330,-7.2509765625E-5,24,100,0,725157,119348,79080,139181,16753541,9691,5713,7802,Tag0,unknown
1545074093903,0,265,5.82275390625E-5,24,100,0,725157,119348,79080,139181,16753541,9691,5713,7802,Tag0,unknown
1545074093903,0,298,6.5478515625E-5,24,100,0,725157,119348,79080,139181,16753541,9691,5713,7802,Tag0,unknown
1545074093904,0,18,3.955078125E-6,24,100,0,725157,119348,79080,139181,16753541,9691,5713,7802,Tag0,unknown
1545074093935,0,-169,-3.7133789062499996E-5,24,100,0,725157,119348,79080,139181,16753541,9691,5713,7802,Tag0,unknown
1545074093935,0,-274,-6.0205078124999997E-5,24,100,0,725157,119348,79080,139181,16753541,9691,5713,7802,Tag0,unknown
1545074093935,0,321,7.053222656250001E-5,24,100,0,725157,119348,79080,139181,16753541,9691,5713,7802,Tag0,unknown
1545074093935,0,376,8.261718750000001E-5,24,100,0,725157,119348,79080,139181,16753541,9691,5713,7802,Tag0,unknown
1545074093936,0,68,1.4941406250000001E-5,24,100,0,725157,119348,79080,139181,16753541,9691,5713,7802,Tag0,unknown
1545074093936,0,-205,-4.50439453125E-5,24,100,0,725157,119348,79080,139181,16753541,9691,5713,7802,Tag0,unknown
1545074093936,0,-134,-2.9443359375000003E-5,24,100,0,725157,119348,79080,139181,16753541,9691,5713,7802,Tag0,unknown
1545074093936,0,-59,-1.29638671875E-5,24,100,0,725157,119348,79080,139181,16753541,9691,5713,7802,Tag0,unknown
1545074093936,0,312,6.85546875E-5,24,100,0,725157,119348,79080,139181,16753541,9691,5713,7802,Tag0,unknown
1545074093937,0,54,1.1865234375000001E-5,24,100,0,725157,119348,79080,139181,16753541,9691,5713,7802,Tag0,unknown
1545074093937,0,-204,-4.4824218749999996E-5,24,100,0,725157,119348,79080,139181,16753541,9691,5713,7802,Tag0,unknown
1545074093937,0,-147,-3.22998046875E-5,24,100,0,725157,119348,79080,139181,16753541,9691,5713,7802,Tag0,unknown
1545074093937,0,-76,-1.669921875E-5,24,100,0,725157,119348,79080,139181,16753541,9691,5713,7802,Tag0,unknown
1545074093937,0,336,7.382812500000001E-5,24,100,0,725157,119348,79080,139181,16753541,9691,5713,7802,Tag0,unknown
1545074093938,0,71,1.56005859375E-5,24,100,0,725157,119348,79080,139181,16753541,9691,5713,7802,Tag0,unknown
1545074093938,0,-517,-1.135986328125E-4,24,100,0,725157,119348,79080,139181,16753541,9691,5713,7802,Tag0,unknown
1545074093938,0,-524,-1.1513671875E-4,24,100,0,725157,119348,79080,139181,16753541,9691,5713,7802,Tag0,unknown
1545074093938,0,50,1.0986328125E-5,24,100,0,725157,119348,79080,139181,16753541,9691,5713,7802,Tag0,unknown
1545074093938,0,274,6.0205078124999997E-5,24,100,0,725157,119348,79080,139181,16753541,9691,5713,7802,Tag0,unknown
1545074093938,0,103,2.26318359375E-5,24,100,0,725157,119348,79080,139181,16753541,9691,5713,7802,Tag0,unknown
1545074093939,0,-183,-4.02099609375E-5,24,100,0,725157,119348,79080,139181,16753541,9691,5713,7802,Tag0,unknown
1545074093939,0,-212,-4.6582031250000006E-5,24,100,0,725157,119348,79080,139181,16753541,9691,5713,7802,Tag0,unknown
1545074093939,0,96,2.109375E-5,24,100,0,725157,119348,79080,139181,16753541,9691,5713,7802,Tag0,unknown
1545074093955,0,344,7.558593750000001E-5,24,100,0,725157,119348,79080,139181,16753541,9691,5713,7802,Tag0,unknown
1545074093956,0,-91,-1.99951171875E-5,24,100,0,725157,119348,79080,139181,16753541,9691,5713,7802,Tag0,unknown
1545074093956,0,-184,-4.04296875E-5,24,100,0,725157,119348,79080,139181,16753541,9691,5713,7802,Tag0,unknown
1545074093956,0,-524,-1.1513671875E-4,24,100,0,725157,119348,79080,139181,16753541,9691,5713,7802,Tag0,unknown
1545074093956,0,7,1.5380859375E-6,24,100,0,725157,119348,79080,139181,16753541,9691,5713,7802,Tag0,unknown
1545074093956,0,300,6.591796875E-5,24,100,0,725157,119348,79080,139181,16753541,9691,5713,7802,Tag0,unknown
1545074093957,0,-47,-1.0327148437500001E-5,24,100,0,725157,119348,79080,139181,16753541,9691,5713,7802,Tag0,unknown
1545074093957,0,-350,-7.6904296875E-5,24,100,0,725157,119348,79080,139181,16753541,9691,5713,7802,Tag0,unknown
1545074093971,0,-201,-4.41650390625E-5,24,100,0,725157,119348,79080,139181,16753541,9691,5713,7802,Tag0,unknown
1545074093971,0,50,1.0986328125E-5,24,100,0,725157,119348,79080,139181,16753541,9691,5713,7802,Tag0,unknown
1545074093990,0,348,7.646484375E-5,24,100,0,725157,119348,79080,139181,16753541,9691,5713,7802,Tag0,unknown
1545074093990,0,262,5.7568359375E-5,24,100,0,725157,119348,79080,139181,16753541,9691,5713,7802,Tag0,unknown
1545074093990,0,-333,-7.316894531249999E-5,24,100,0,725157,119348,79080,139181,16753541,9691,5713,7802,Tag0,unknown
1545074093990,0,-230,-5.0537109375E-5,24,100,0,725157,119348,79080,139181,16753541,9691,5713,7802,Tag0,unknown
1545074093990,0,-262,-5.7568359375E-5,24,100,0,725157,119348,79080,139181,16753541,9691,5713,7802,Tag0,unknown
1545074093991,0,320,7.03125E-5,24,100,0,725157,119348,79080,139181,16753541,9691,5713,7802,Tag0,unknown
1545074093991,0,276,6.064453125E-5,24,100,0,725157,119348,79080,139181,16753541,9691,5713,7802,Tag0,unknown
1545074093991,0,-315,-6.92138671875E-5,24,100,0,725157,119348,79080,139181,16753541,9691,5713,7802,Tag0,unknown
1545074093991,0,-251,-5.5151367187500004E-5,24,100,0,725157,119348,79080,139181,16753541,9691,5713,7802,Tag0,unknown
1545074093992,0,-323,-7.09716796875E-5,24,100,0,725157,119348,79080,139181,16753541,9691,5713,7802,Tag0,unknown
1545074093992,0,281,6.17431640625E-5,24,100,0,725157,119348,79080,139181,16753541,9691,5713,7802,Tag0,unknown
1545074093992,0,308,6.767578125E-5,24,100,0,725157,119348,79080,139181,16753541,9691,5713,7802,Tag0,unknown
1545074093992,0,-278,-6.108398437500001E-5,24,100,0,725157,119348,79080,139181,16753541,9691,5713,7802,Tag0,unknown
1545074093993,0,-531,-1.1667480468750001E-4,24,100,0,725157,119348,79080,139181,16753541,9691,5713,7802,Tag0,unknown
1545074093993,0,-157,-3.44970703125E-5,24,100,0,725157,119348,79080,139181,16753541,9691,5713,7802,Tag0,unknown
1545074093993,0,-75,-1.64794921875E-5,24,100,0,725157,119348,79080,139181,16753541,9691,5713,7802,Tag0,unknown
1545074093993,0,265,5.82275390625E-5,24,100,0,725157,119348,79080,139181,16753541,9691,5713,7802,Tag0,unknown
1545074093993,0,-258,-5.6689453125000004E-5,24,100,0,725157,119348,79080,139181,16753541,9691,5713,7802,Tag0,unknown
1545074093994,0,-237,-5.2075195312500004E-5,24,100,0,725157,119348,79080,139181,16753541,9691,5713,7802,Tag0,unknown
1545074093994,0,-138,-3.0322265625E-5,24,100,0,725157,119348,79080,139181,16753541,9691,5713,7802,Tag0,unknown
1545074093994,0,-35,-7.6904296875E-6,24,100,0,725157,119348,79080,139181,16753541,9691,5713,7802,Tag0,unknown
1545074093994,0,362,7.954101562500001E-5,24,100,0,725157,119348,79080,139181,16753541,9691,5713,7802,Tag0,unknown
1545074093994,0,85,1.86767578125E-5,24,100,0,725157,119348,79080,139181,16753541,9691,5713,7802,Tag0,unknown
1545074093995,0,-211,-4.63623046875E-5,24,100,0,725157,119348,79080,139181,16753541,9691,5713,7802,Tag0,unknown
1545074093995,0,-157,-3.44970703125E-5,24,100,0,725157,119348,79080,139181,16753541,9691,5713,7802,Tag0,unknown
1545074093995,0,-69,-1.51611328125E-5,24,100,0,725157,119348,79080,139181,16753541,9691,5713,7802,Tag0,unknown
1545074094004,0,377,8.28369140625E-5,24,100,0,725157,119348,79080,139181,16753541,9691,5713,7802,Tag0,unknown
1545074094004,0,-95,-2.08740234375E-5,24,100,0,725157,119348,79080,139181,16753541,9691,5713,7802,Tag0,unknown
1545074094005,0,-378,-8.3056640625E-5,24,100,0,725157,119348,79080,139181,16753541,9691,5713,7802,Tag0,unknown
1545074094028,0,-370,-8.1298828125E-5,24,100,0,725157,119348,79080,139181,16753541,9691,5713,7802,Tag0,unknown
1545074094039,0,-35,-7.6904296875E-6,24,100,0,725157,119348,79080,139181,16753541,9691,5713,7802,Tag0,unknown
1545074094040,0,202,4.4384765625000004E-5,24,100,0,725157,119348,79080,139181,16753541,9691,5713,7802,Tag0,unknown
1545074094040,0,259,5.69091796875E-5,24,100,0,725157,119348,79080,139181,16753541,9691,5713,7802,Tag0,unknown
1545074094040,0,-353,-7.75634765625E-5,24,100,0,725157,119348,79080,139181,16753541,9691,5713,7802,Tag0,unknown
1545074094041,0,-168,-3.691406250000001E-5,24,100,0,725157,119348,79080,139181,16753541,9691,5713,7802,Tag0,unknown
1545074094041,0,119,2.6147460937500004E-5,24,100,0,725157,119348,79080,139181,16753541,9691,5713,7802,Tag0,unknown
1545074094041,0,377,8.28369140625E-5,24,100,0,725157,119348,79080,139181,16753541,9691,5713,7802,Tag0,unknown
1545074094041,0,-32,-7.03125E-6,24,100,0,725157,119348,79080,139181,16753541,9691,5713,7802,Tag0,unknown
1545074094041,0,-354,-7.778320312500001E-5,24,100,0,725157,119348,79080,139181,16753541,9691,5713,7802,Tag0,unknown
1545074094042,0,-196,-4.306640625E-5,24,100,0,725157,119348,79080,139181,16753541,9691,5713,7802,Tag0,unknown
1545074094042,0,45,9.8876953125E-6,24,100,0,725157,119348,79080,139181,16753541,9691,5713,7802,Tag0,unknown
1545074094042,0,321,7.053222656250001E-5,24,100,0,725157,119348,79080,139181,16753541,9691,5713,7802,Tag0,unknown
1545074094042,0,-42,-9.228515625000002E-6,24,100,0,725157,119348,79080,139181,16753541,9691,5713,7802,Tag0,unknown
1545074094042,0,-141,-3.09814453125E-5,24,100,0,725157,119348,79080,139181,16753541,9691,5713,7802,Tag0,unknown
1545074094043,0,-570,-1.25244140625E-4,24,100,0,725157,119348,79080,139181,16753541,9691,5713,7802,Tag0,unknown
1545074094043,0,-360,-7.91015625E-5,24,100,0,725157,119348,79080,139181,16753541,9691,5713,7802,Tag0,unknown
1545074094055,0,-38,-8.349609375E-6,24,100,0,725157,119348,79080,139181,16753541,9691,5713,7802,Tag0,unknown
1545074094055,0,-68,-1.4941406250000001E-5,24,100,0,725157,119348,79080,139181,16753541,9691,5713,7802,Tag0,unknown
1545074094055,0,-373,-8.19580078125E-5,24,100,0,725157,119348,79080,139181,16753541,9691,5713,7802,Tag0,unknown
1545074094056,0,-535,-1.175537109375E-4,24,100,0,725157,119348,79080,139181,16753541,9691,5713,7802,Tag0,unknown
1545074094056,0,-334,-7.338867187500001E-5,24,100,0,725157,119348,79080,139181,16753541,9691,5713,7802,Tag0,unknown
1545074094056,0,-3,-6.591796875E-7,24,100,0,725157,119348,79080,139181,16753541,9691,5713,7802,Tag0,unknown
1545074094057,0,268,5.8886718750000006E-5,24,100,0,725157,119348,79080,139181,16753541,9691,5713,7802,Tag0,unknown
1545074094057,0,-280,-6.15234375E-5,24,100,0,725157,119348,79080,139181,16753541,9691,5713,7802,Tag0,unknown
1545074094057,0,-214,-4.7021484375E-5,24,100,0,725157,119348,79080,139181,16753541,9691,5713,7802,Tag0,unknown
1545074094057,0,-315,-6.92138671875E-5,24,100,0,725157,119348,79080,139181,16753541,9691,5713,7802,Tag0,unknown
1545074094057,0,275,6.04248046875E-5,24,100,0,725157,119348,79080,139181,16753541,9691,5713,7802,Tag0,unknown
1545074094058,0,340,7.470703125E-5,24,100,0,725157,119348,79080,139181,16753541,9691,5713,7802,Tag0,unknown
1545074094058,0,72,1.58203125E-5,24,100,0,725157,119348,79080,139181,16753541,9691,5713,7802,Tag0,unknown
1545074094091,0,-139,-3.0541992187500004E-5,24,100,0,725157,119348,79080,139181,16753541,9691,5713,7802,Tag0,unknown
1545074094107,0,-275,-6.04248046875E-5,24,100,0,725157,119348,79080,139181,16753541,9691,5713,7802,Tag0,unknown
1545074094109,0,328,7.207031249999999E-5,24,100,0,725157,119348,79080,139181,16753541,9691,5713,7802,Tag0,unknown
1545074094112,0,171,3.75732421875E-5,24,100,0,725157,119348,79080,139181,16753541,9691,5713,7802,Tag0,unknown
1545074094113,0,-127,-2.79052734375E-5,24,100,0,725157,119348,79080,139181,16753541,9691,5713,7802,Tag0,unknown
1545074094114,0,-173,-3.80126953125E-5,24,100,0,725157,119348,79080,139181,16753541,9691,5713,7802,Tag0,unknown
1545074094114,0,-145,-3.18603515625E-5,24,100,0,725157,119348,79080,139181,16753541,9691,5713,7802,Tag0,unknown
1545074094114,0,-87,-1.91162109375E-5,24,100,0,725157,119348,79080,139181,16753541,9691,5713,7802,Tag0,unknown
1545074094115,0,331,7.272949218750001E-5,24,100,0,725157,119348,79080,139181,16753541,9691,5713,7802,Tag0,unknown
1545074094115,0,106,2.3291015625000003E-5,24,100,0,725157,119348,79080,139181,16753541,9691,5713,7802,Tag0,unknown
1545074094115,0,-177,-3.8891601562500006E-5,24,100,0,725157,119348,79080,139181,16753541,9691,5713,7802,Tag0,unknown
1545074094115,0,-162,-3.5595703125E-5,24,100,0,725157,119348,79080,139181,16753541,9691,5713,7802,Tag0,unknown
1545074094115,0,-106,-2.3291015625000003E-5,24,100,0,725157,119348,79080,139181,16753541,9691,5713,7802,Tag0,unknown
1545074094116,0,328,7.207031249999999E-5,24,100,0,725157,119348,79080,139181,16753541,9691,5713,7802,Tag0,unknown
1545074094116,0,91,1.99951171875E-5,24,100,0,725157,119348,79080,139181,16753541,9691,5713,7802,Tag0,unknown
1545074094116,0,-242,-5.3173828125000005E-5,24,100,0,725157,119348,79080,139181,16753541,9691,5713,7802,Tag0,unknown
1545074094117,0,-532,-1.1689453125E-4,24,100,0,725157,119348,79080,139181,16753541,9691,5713,7802,Tag0,unknown
1545074094117,0,19,4.1748046875E-6,24,100,0,725157,119348,79080,139181,16753541,9691,5713,7802,Tag0,unknown
1545074094117,0,257,5.64697265625E-5,24,100,0,725157,119348,79080,139181,16753541,9691,5713,7802,Tag0,unknown
1545074094117,0,89,1.95556640625E-5,24,100,0,725157,119348,79080,139181,16753541,9691,5713,7802,Tag0,unknown
1545074094118,0,-210,-4.6142578125E-5,24,100,0,725157,119348,79080,139181,16753541,9691,5713,7802,Tag0,unknown
1545074094118,0,-514,-1.12939453125E-4,24,100,0,725157,119348,79080,139181,16753541,9691,5713,7802,Tag0,unknown
1545074094118,0,22,4.833984375E-6,24,100,0,725157,119348,79080,139181,16753541,9691,5713,7802,Tag0,unknown
1545074094119,0,285,6.26220703125E-5,24,100,0,725157,119348,79080,139181,16753541,9691,5713,7802,Tag0,unknown
1545074094119,0,-89,-1.95556640625E-5,24,100,0,725157,119348,79080,139181,16753541,9691,5713,7802,Tag0,unknown
1545074094119,0,-157,-3.44970703125E-5,24,100,0,725157,119348,79080,139181,16753541,9691,5713,7802,Tag0,unknown
1545074094119,0,-529,-1.162353515625E-4,24,100,0,725157,119348,79080,139181,16753541,9691,5713,7802,Tag0,unknown
1545074094122,0,-276,-6.064453125E-5,24,100,0,725157,119348,79080,139181,16753541,9691,5713,7802,Tag0,unknown
1545074094122,0,299,6.56982421875E-5,24,100,0,725157,119348,79080,139181,16753541,9691,5713,7802,Tag0,unknown
1545074094122,0,-10,-2.197265625E-6,24,100,0,725157,119348,79080,139181,16753541,9691,5713,7802,Tag0,unknown
1545074094123,0,-308,-6.767578125E-5,24,100,0,725157,119348,79080,139181,16753541,9691,5713,7802,Tag0,unknown
1545074094123,0,-183,-4.02099609375E-5,24,100,0,725157,119348,79080,139181,16753541,9691,5713,7802,Tag0,unknown
1545074094151,0,39,8.5693359375E-6,24,100,0,725157,119348,79080,139181,16753541,9691,5713,7802,Tag0,unknown
1545074094151,0,371,8.151855468750001E-5,24,100,0,725157,119348,79080,139181,16753541,9691,5713,7802,Tag0,unknown
1545074094170,0,343,7.53662109375E-5,24,100,0,725157,119348,79080,139181,16753541,9691,5713,7802,Tag0,unknown
1545074094171,0,-257,-5.64697265625E-5,24,100,0,725157,119348,79080,139181,16753541,9691,5713,7802,Tag0,unknown
1545074094171,0,-221,-4.85595703125E-5,24,100,0,725157,119348,79080,139181,16753541,9691,5713,7802,Tag0,unknown
1545074094171,0,-324,-7.119140625E-5,24,100,0,725157,119348,79080,139181,16753541,9691,5713,7802,Tag0,unknown
1545074094171,0,262,5.7568359375E-5,24,100,0,725157,119348,79080,139181,16753541,9691,5713,7802,Tag0,unknown
1545074094171,0,280,6.15234375E-5,24,100,0,725157,119348,79080,139181,16753541,9691,5713,7802,Tag0,unknown
1545074094172,0,-278,-6.108398437500001E-5,24,100,0,725157,119348,79080,139181,16753541,9691,5713,7802,Tag0,unknown
1545074094172,0,-244,-5.361328125E-5,24,100,0,725157,119348,79080,139181,16753541,9691,5713,7802,Tag0,unknown
1545074094172,0,-375,-8.23974609375E-5,24,100,0,725157,119348,79080,139181,16753541,9691,5713,7802,Tag0,unknown
1545074094172,0,-45,-9.8876953125E-6,24,100,0,725157,119348,79080,139181,16753541,9691,5713,7802,Tag0,unknown
1545074094172,0,280,6.15234375E-5,24,100,0,725157,119348,79080,139181,16753541,9691,5713,7802,Tag0,unknown
1545074094173,0,-282,-6.1962890625E-5,24,100,0,725157,119348,79080,139181,16753541,9691,5713,7802,Tag0,unknown
1545074094173,0,-567,-1.245849609375E-4,24,100,0,725157,119348,79080,139181,16753541,9691,5713,7802,Tag0,unknown
1545074094175,0,-230,-5.0537109375E-5,24,100,0,725157,119348,79080,139181,16753541,9691,5713,7802,Tag0,unknown
1545074094176,0,125,2.74658203125E-5,24,100,0,725157,119348,79080,139181,16753541,9691,5713,7802,Tag0,unknown
1545074094176,0,277,6.0864257812500005E-5,24,100,0,725157,119348,79080,139181,16753541,9691,5713,7802,Tag0,unknown
1545074094176,0,34,7.4707031250000005E-6,24,100,0,725157,119348,79080,139181,16753541,9691,5713,7802,Tag0,unknown
1545074094176,0,-229,-5.03173828125E-5,24,100,0,725157,119348,79080,139181,16753541,9691,5713,7802,Tag0,unknown
1545074094177,0,-166,-3.6474609375E-5,24,100,0,725157,119348,79080,139181,16753541,9691,5713,7802,Tag0,unknown
1545074094177,0,-72,-1.58203125E-5,24,100,0,725157,119348,79080,139181,16753541,9691,5713,7802,Tag0,unknown
1545074094177,0,357,7.844238281250001E-5,24,100,0,725157,119348,79080,139181,16753541,9691,5713,7802,Tag0,unknown
1545074094178,0,105,2.30712890625E-5,24,100,0,725157,119348,79080,139181,16753541,9691,5713,7802,Tag0,unknown
1545074094178,0,-200,-4.39453125E-5,24,100,0,725157,119348,79080,139181,16753541,9691,5713,7802,Tag0,unknown
1545074094178,0,-179,-3.93310546875E-5,24,100,0,725157,119348,79080,139181,16753541,9691,5713,7802,Tag0,unknown
1545074094178,0,-92,-2.021484375E-5,24,100,0,725157,119348,79080,139181,16753541,9691,5713,7802,Tag0,unknown
1545074094178,0,140,3.076171875E-5,24,100,0,725157,119348,79080,139181,16753541,9691,5713,7802,Tag0,unknown
1545074094189,0,-42,-9.228515625000002E-6,24,100,0,725157,119348,79080,139181,16753541,9691,5713,7802,Tag0,unknown
1545074094190,0,-341,-7.492675781250002E-5,24,100,0,725157,119348,79080,139181,16753541,9691,5713,7802,Tag0,unknown
1545074094207,0,-365,-8.02001953125E-5,24,100,0,725157,119348,79080,139181,16753541,9691,5713,7802,Tag0,unknown
1545074094207,0,-45,-9.8876953125E-6,24,100,0,725157,119348,79080,139181,16753541,9691,5713,7802,Tag0,unknown
1545074094207,0,220,4.833984375E-5,24,100,0,725157,119348,79080,139181,16753541,9691,5713,7802,Tag0,unknown
1545074094263,0,306,6.723632812500001E-5,24,100,0,725157,119348,79080,139181,16753541,9691,5713,7802,Tag0,unknown
1545074094289,0,-327,-7.18505859375E-5,24,100,0,725157,119348,79080,139181,16753541,9691,5713,7802,Tag0,unknown
1545074094289,0,-193,-4.2407226562500005E-5,24,100,0,725157,119348,79080,139181,16753541,9691,5713,7802,Tag0,unknown
1545074094289,0,81,1.77978515625E-5,24,100,0,725157,119348,79080,139181,16753541,9691,5713,7802,Tag0,unknown
1545074094289,0,136,2.9882812500000002E-5,24,100,0,725157,119348,79080,139181,16753541,9691,5713,7802,Tag0,unknown
1545074094289,0,291,6.39404296875E-5,24,100,0,725157,119348,79080,139181,16753541,9691,5713,7802,Tag0,unknown
1545074094290,0,-308,-6.767578125E-5,24,100,0,725157,119348,79080,139181,16753541,9691,5713,7802,Tag0,unknown
1545074094290,0,-209,-4.59228515625E-5,24,100,0,725157,119348,79080,139181,16753541,9691,5713,7802,Tag0,unknown
1545074094290,0,2,4.39453125E-7,24,100,0,725157,119348,79080,139181,16753541,9691,5713,7802,Tag0,unknown
1545074094331,0,314,6.8994140625E-5,24,100,0,725157,119348,79080,139181,16753541,9691,5713,7802,Tag0,unknown
1545074094338,0,265,5.82275390625E-5,24,100,0,725157,119348,79080,139181,16753541,9691,5713,7802,Tag0,unknown
1545074094339,0,-326,-7.163085937500001E-5,24,100,0,725157,119348,79080,139181,16753541,9691,5713,7802,Tag0,unknown
1545074094339,0,-248,-5.44921875E-5,24,100,0,725157,119348,79080,139181,16753541,9691,5713,7802,Tag0,unknown
1545074094339,0,-313,-6.87744140625E-5,24,100,0,725157,119348,79080,139181,16753541,9691,5713,7802,Tag0,unknown
1545074094339,0,267,5.86669921875E-5,24,100,0,725157,119348,79080,139181,16753541,9691,5713,7802,Tag0,unknown
1545074094339,0,262,5.7568359375E-5,24,100,0,725157,119348,79080,139181,16753541,9691,5713,7802,Tag0,unknown
1545074094339,0,-305,-6.70166015625E-5,24,100,0,725157,119348,79080,139181,16753541,9691,5713,7802,Tag0,unknown
1545074094340,0,-243,-5.33935546875E-5,24,100,0,725157,119348,79080,139181,16753541,9691,5713,7802,Tag0,unknown
1545074094340,0,-331,-7.272949218750001E-5,24,100,0,725157,119348,79080,139181,16753541,9691,5713,7802,Tag0,unknown
1545074094340,0,267,5.86669921875E-5,24,100,0,725157,119348,79080,139181,16753541,9691,5713,7802,Tag0,unknown
1545074094340,0,314,6.8994140625E-5,24,100,0,725157,119348,79080,139181,16753541,9691,5713,7802,Tag0,unknown
1545074094340,0,-264,-5.80078125E-5,24,100,0,725157,119348,79080,139181,16753541,9691,5713,7802,Tag0,unknown
1545074094340,0,-536,-1.1777343750000001E-4,24,100,0,725157,119348,79080,139181,16753541,9691,5713,7802,Tag0,unknown
1545074094340,0,-185,-4.06494140625E-5,24,100,0,725157,119348,79080,139181,16753541,9691,5713,7802,Tag0,unknown
1545074094340,0,-89,-1.95556640625E-5,24,100,0,725157,119348,79080,139181,16753541,9691,5713,7802,Tag0,unknown
1545074094341,0,279,6.13037109375E-5,24,100,0,725157,119348,79080,139181,16753541,9691,5713,7802,Tag0,unknown
1545074094341,0,9,1.9775390625E-6,24,100,0,725157,119348,79080,139181,16753541,9691,5713,7802,Tag0,unknown
1545074094341,0,-248,-5.44921875E-5,24,100,0,725157,119348,79080,139181,16753541,9691,5713,7802,Tag0,unknown
1545074094341,0,-177,-3.8891601562500006E-5,24,100,0,725157,119348,79080,139181,16753541,9691,5713,7802,Tag0,unknown
1545074094341,0,-87,-1.91162109375E-5,24,100,0,725157,119348,79080,139181,16753541,9691,5713,7802,Tag0,unknown
1545074094341,0,317,6.96533203125E-5,24,100,0,725157,119348,79080,139181,16753541,9691,5713,7802,Tag0,unknown
1545074094341,0,49,1.07666015625E-5,24,100,0,725157,119348,79080,139181,16753541,9691,5713,7802,Tag0,unknown
1545074094342,0,-523,-1.149169921875E-4,24,100,0,725157,119348,79080,139181,16753541,9691,5713,7802,Tag0,unknown
1545074094342,0,-513,-1.127197265625E-4,24,100,0,725157,119348,79080,139181,16753541,9691,5713,7802,Tag0,unknown
1545074094342,0,73,1.6040039062500002E-5,24,100,0,725157,119348,79080,139181,16753541,9691,5713,7802,Tag0,unknown
1545074094342,0,276,6.064453125E-5,24,100,0,725157,119348,79080,139181,16753541,9691,5713,7802,Tag0,unknown
1545074094342,0,74,1.6259765625E-5,24,100,0,725157,119348,79080,139181,16753541,9691,5713,7802,Tag0,unknown
1545074094344,0,-222,-4.8779296875E-5,24,100,0,725157,119348,79080,139181,16753541,9691,5713,7802,Tag0,unknown
1545074094344,0,-248,-5.44921875E-5,24,100,0,725157,119348,79080,139181,16753541,9691,5713,7802,Tag0,unknown
1545074094344,0,52,1.142578125E-5,24,100,0,725157,119348,79080,139181,16753541,9691,5713,7802,Tag0,unknown
1545074094344,0,295,6.48193359375E-5,24,100,0,725157,119348,79080,139181,16753541,9691,5713,7802,Tag0,unknown
1545074094344,0,-127,-2.79052734375E-5,24,100,0,725157,119348,79080,139181,16753541,9691,5713,7802,Tag0,unknown
1545074094344,0,-203,-4.460449218750001E-5,24,100,0,725157,119348,79080,139181,16753541,9691,5713,7802,Tag0,unknown
1545074094381,0,-545,-1.197509765625E-4,24,100,0,725157,119348,79080,139181,16753541,9691,5713,7802,Tag0,unknown
1545074094381,0,-274,-6.0205078124999997E-5,24,100,0,725157,119348,79080,139181,16753541,9691,5713,7802,Tag0,unknown
1545074094381,0,264,5.80078125E-5,24,100,0,725157,119348,79080,139181,16753541,9691,5713,7802,Tag0,unknown
1545074094387,0,-96,-2.109375E-5,24,100,0,725157,119348,79080,139181,16753541,9691,5713,7802,Tag0,unknown
1545074094387,0,-141,-3.09814453125E-5,24,100,0,725157,119348,79080,139181,16753541,9691,5713,7802,Tag0,unknown
1545074094387,0,-246,-5.4052734375E-5,24,100,0,725157,119348,79080,139181,16753541,9691,5713,7802,Tag0,unknown
1545074094387,0,-261,-5.73486328125E-5,24,100,0,725157,119348,79080,139181,16753541,9691,5713,7802,Tag0,unknown
1545074094387,0,288,6.328125E-5,24,100,0,725157,119348,79080,139181,16753541,9691,5713,7802,Tag0,unknown
1545074094402,0,-60,-1.318359375E-5,24,100,0,725157,119348,79080,139181,16753541,9691,5713,7802,Tag0,unknown
1545074094403,0,-154,-3.3837890625E-5,24,100,0,725157,119348,79080,139181,16753541,9691,5713,7802,Tag0,unknown
1545074094403,0,-578,-1.27001953125E-4,24,100,0,725157,119348,79080,139181,16753541,9691,5713,7802,Tag0,unknown
1545074094403,0,-375,-8.23974609375E-5,24,100,0,725157,119348,79080,139181,16753541,9691,5713,7802,Tag0,unknown
1545074094403,0,-47,-1.0327148437500001E-5,24,100,0,725157,119348,79080,139181,16753541,9691,5713,7802,Tag0,unknown
1545074094403,0,-55,-1.20849609375E-5,24,100,0,725157,119348,79080,139181,16753541,9691,5713,7802,Tag0,unknown
1545074094403,0,-349,-7.668457031250001E-5,24,100,0,725157,119348,79080,139181,16753541,9691,5713,7802,Tag0,unknown
1545074094403,0,-530,-1.16455078125E-4,24,100,0,725157,119348,79080,139181,16753541,9691,5713,7802,Tag0,unknown
1545074094403,0,-357,-7.844238281250001E-5,24,100,0,725157,119348,79080,139181,16753541,9691,5713,7802,Tag0,unknown
1545074094404,0,-25,-5.4931640625E-6,24,100,0,725157,119348,79080,139181,16753541,9691,5713,7802,Tag0,unknown
1545074094404,0,-9,-1.9775390625E-6,24,100,0,725157,119348,79080,139181,16753541,9691,5713,7802,Tag0,unknown
1545074094404,0,-333,-7.316894531249999E-5,24,100,0,725157,119348,79080,139181,16753541,9691,5713,7802,Tag0,unknown
1545074094404,0,-569,-1.250244140625E-4,24,100,0,725157,119348,79080,139181,16753541,9691,5713,7802,Tag0,unknown
1545074094404,0,-173,-3.80126953125E-5,24,100,0,725157,119348,79080,139181,16753541,9691,5713,7802,Tag0,unknown
1545074094404,0,-76,-1.669921875E-5,24,100,0,725157,119348,79080,139181,16753541,9691,5713,7802,Tag0,unknown
1545074094404,0,264,5.80078125E-5,24,100,0,725157,119348,79080,139181,16753541,9691,5713,7802,Tag0,unknown
1545074094405,0,-265,-5.82275390625E-5,24,100,0,725157,119348,79080,139181,16753541,9691,5713,7802,Tag0,unknown
1545074094405,0,-249,-5.47119140625E-5,24,100,0,725157,119348,79080,139181,16753541,9691,5713,7802,Tag0,unknown
1545074094405,0,-152,-3.33984375E-5,24,100,0,725157,119348,79080,139181,16753541,9691,5713,7802,Tag0,unknown
1545074094405,0,-58,-1.2744140625E-5,24,100,0,725157,119348,79080,139181,16753541,9691,5713,7802,Tag0,unknown
1545074094405,0,325,7.14111328125E-5,24,100,0,725157,119348,79080,139181,16753541,9691,5713,7802,Tag0,unknown
1545074094406,0,45,9.8876953125E-6,24,100,0,725157,119348,79080,139181,16753541,9691,5713,7802,Tag0,unknown
1545074094406,0,-513,-1.127197265625E-4,24,100,0,725157,119348,79080,139181,16753541,9691,5713,7802,Tag0,unknown
1545074094406,0,-221,-4.85595703125E-5,24,100,0,725157,119348,79080,139181,16753541,9691,5713,7802,Tag0,unknown
1545074094406,0,107,2.35107421875E-5,24,100,0,725157,119348,79080,139181,16753541,9691,5713,7802,Tag0,unknown
1545074094406,0,289,6.35009765625E-5,24,100,0,725157,119348,79080,139181,16753541,9691,5713,7802,Tag0,unknown
1545074094406,0,75,1.64794921875E-5,24,100,0,725157,119348,79080,139181,16753541,9691,5713,7802,Tag0,unknown
1545074094406,0,-210,-4.6142578125E-5,24,100,0,725157,119348,79080,139181,16753541,9691,5713,7802,Tag0,unknown
1545074094406,0,-206,-4.5263671875E-5,24,100,0,725157,119348,79080,139181,16753541,9691,5713,7802,Tag0,unknown
1545074094407,0,121,2.6586914062500003E-5,24,100,0,725157,119348,79080,139181,16753541,9691,5713,7802,Tag0,unknown
1545074094407,0,342,7.5146484375E-5,24,100,0,725157,119348,79080,139181,16753541,9691,5713,7802,Tag0,unknown
1545074094407,0,-119,-2.6147460937500004E-5,24,100,0,725157,119348,79080,139181,16753541,9691,5713,7802,Tag0,unknown
1545074094407,0,-197,-4.32861328125E-5,24,100,0,725157,119348,79080,139181,16753541,9691,5713,7802,Tag0,unknown
1545074094407,0,-515,-1.131591796875E-4,24,100,0,725157,119348,79080,139181,16753541,9691,5713,7802,Tag0,unknown
1545074094407,0,23,5.0537109375E-6,24,100,0,725157,119348,79080,139181,16753541,9691,5713,7802,Tag0,unknown
1545074094407,0,280,6.15234375E-5,24,100,0,725157,119348,79080,139181,16753541,9691,5713,7802,Tag0,unknown
1545074094408,0,-110,-2.4169921875E-5,24,100,0,725157,119348,79080,139181,16753541,9691,5713,7802,Tag0,unknown
1545074094408,0,-162,-3.5595703125E-5,24,100,0,725157,119348,79080,139181,16753541,9691,5713,7802,Tag0,unknown
1545074094408,0,-249,-5.47119140625E-5,24,100,0,725157,119348,79080,139181,16753541,9691,5713,7802,Tag0,unknown
1545074094408,0,12,2.63671875E-6,24,100,0,725157,119348,79080,139181,16753541,9691,5713,7802,Tag0,unknown
1545074094408,0,309,6.78955078125E-5,24,100,0,725157,119348,79080,139181,16753541,9691,5713,7802,Tag0,unknown
1545074094408,0,-39,-8.5693359375E-6,24,100,0,725157,119348,79080,139181,16753541,9691,5713,7802,Tag0,unknown
1545074094408,0,-377,-8.28369140625E-5,24,100,0,725157,119348,79080,139181,16753541,9691,5713,7802,Tag0,unknown
1545074094409,0,-536,-1.1777343750000001E-4,24,100,0,725157,119348,79080,139181,16753541,9691,5713,7802,Tag0,unknown
1545074094409,0,-313,-6.87744140625E-5,24,100,0,725157,119348,79080,139181,16753541,9691,5713,7802,Tag0,unknown
1545074094409,0,272,5.9765625000000004E-5,24,100,0,725157,119348,79080,139181,16753541,9691,5713,7802,Tag0,unknown
1545074094409,0,-29,-6.3720703125E-6,24,100,0,725157,119348,79080,139181,16753541,9691,5713,7802,Tag0,unknown
1545074094409,0,-346,-7.6025390625E-5,24,100,0,725157,119348,79080,139181,16753541,9691,5713,7802,Tag0,unknown
1545074094409,0,-251,-5.5151367187500004E-5,24,100,0,725157,119348,79080,139181,16753541,9691,5713,7802,Tag0,unknown
1545074094409,0,-310,-6.8115234375E-5,24,100,0,725157,119348,79080,139181,16753541,9691,5713,7802,Tag0,unknown
1545074094410,0,281,6.17431640625E-5,24,100,0,725157,119348,79080,139181,16753541,9691,5713,7802,Tag0,unknown
1545074094410,0,283,6.218261718750001E-5,24,100,0,725157,119348,79080,139181,16753541,9691,5713,7802,Tag0,unknown
1545074094410,0,-309,-6.78955078125E-5,24,100,0,725157,119348,79080,139181,16753541,9691,5713,7802,Tag0,unknown
1545074094410,0,-536,-1.1777343750000001E-4,24,100,0,725157,119348,79080,139181,16753541,9691,5713,7802,Tag0,unknown
1545074094410,0,-375,-8.23974609375E-5,24,100,0,725157,119348,79080,139181,16753541,9691,5713,7802,Tag0,unknown
1545074094410,0,-7,-1.5380859375E-6,24,100,0,725157,119348,79080,139181,16753541,9691,5713,7802,Tag0,unknown
1545074094411,0,322,7.0751953125E-5,24,100,0,725157,119348,79080,139181,16753541,9691,5713,7802,Tag0,unknown
1545074094411,0,38,8.349609375E-6,24,100,0,725157,119348,79080,139181,16753541,9691,5713,7802,Tag0,unknown
1545074094411,0,-182,-3.9990234375E-5,24,100,0,725157,119348,79080,139181,16753541,9691,5713,7802,Tag0,unknown
1545074094411,0,-300,-6.591796875E-5,24,100,0,725157,119348,79080,139181,16753541,9691,5713,7802,Tag0,unknown
1545074094411,0,325,7.14111328125E-5,24,100,0,725157,119348,79080,139181,16753541,9691,5713,7802,Tag0,unknown
1545074094411,0,196,4.306640625E-5,24,100,0,725157,119348,79080,139181,16753541,9691,5713,7802,Tag0,unknown
1545074094411,0,-83,-1.82373046875E-5,24,100,0,725157,119348,79080,139181,16753541,9691,5713,7802,Tag0,unknown
1545074094419,0,-377,-8.28369140625E-5,24,100,0,725157,119348,79080,139181,16753541,9691,5713,7802,Tag0,unknown
1545074094419,0,-338,-7.426757812499999E-5,24,100,0,725157,119348,79080,139181,16753541,9691,5713,7802,Tag0,unknown
1545074094420,0,-14,-3.076171875E-6,24,100,0,725157,119348,79080,139181,16753541,9691,5713,7802,Tag0,unknown
1545074094420,0,145,3.18603515625E-5,24,100,0,725157,119348,79080,139181,16753541,9691,5713,7802,Tag0,unknown
1545074094420,0,-79,-1.7358398437500003E-5,24,100,0,725157,119348,79080,139181,16753541,9691,5713,7802,Tag0,unknown
1545074094420,0,-346,-7.6025390625E-5,24,100,0,725157,119348,79080,139181,16753541,9691,5713,7802,Tag0,unknown
1545074094420,0,-316,-6.943359375000001E-5,24,100,0,725157,119348,79080,139181,16753541,9691,5713,7802,Tag0,unknown
1545074094421,0,263,5.7788085937500005E-5,24,100,0,725157,119348,79080,139181,16753541,9691,5713,7802,Tag0,unknown
1545074094436,0,201,4.41650390625E-5,24,100,0,725157,119348,79080,139181,16753541,9691,5713,7802,Tag0,unknown
1545074094437,0,-8,-1.7578125E-6,24,100,0,725157,119348,79080,139181,16753541,9691,5713,7802,Tag0,unknown
1545074094437,0,-327,-7.18505859375E-5,24,100,0,725157,119348,79080,139181,16753541,9691,5713,7802,Tag0,unknown
1545074094437,0,-358,-7.8662109375E-5,24,100,0,725157,119348,79080,139181,16753541,9691,5713,7802,Tag0,unknown
1545074094438,0,-51,-1.1206054687499999E-5,24,100,0,725157,119348,79080,139181,16753541,9691,5713,7802,Tag0,unknown
1545074094438,0,208,4.5703125E-5,24,100,0,725157,119348,79080,139181,16753541,9691,5713,7802,Tag0,unknown
1545074094438,0,308,6.767578125E-5,24,100,0,725157,119348,79080,139181,16753541,9691,5713,7802,Tag0,unknown
1545074094438,0,-257,-5.64697265625E-5,24,100,0,725157,119348,79080,139181,16753541,9691,5713,7802,Tag0,unknown
1545074094452,0,-316,-6.943359375000001E-5,24,100,0,725157,119348,79080,139181,16753541,9691,5713,7802,Tag0,unknown
1545074094453,0,-37,-8.1298828125E-6,24,100,0,725157,119348,79080,139181,16753541,9691,5713,7802,Tag0,unknown
1545074094453,0,231,5.07568359375E-5,24,100,0,725157,119348,79080,139181,16753541,9691,5713,7802,Tag0,unknown
1545074094453,0,349,7.668457031250001E-5,24,100,0,725157,119348,79080,139181,16753541,9691,5713,7802,Tag0,unknown
1545074094453,0,-257,-5.64697265625E-5,24,100,0,725157,119348,79080,139181,16753541,9691,5713,7802,Tag0,unknown
1545074094454,0,-131,-2.87841796875E-5,24,100,0,725157,119348,79080,139181,16753541,9691,5713,7802,Tag0,unknown
1545074094454,0,113,2.48291015625E-5,24,100,0,725157,119348,79080,139181,16753541,9691,5713,7802,Tag0,unknown
1545074094454,0,164,3.6035156249999995E-5,24,100,0,725157,119348,79080,139181,16753541,9691,5713,7802,Tag0,unknown
1545074094454,0,345,7.58056640625E-5,24,100,0,725157,119348,79080,139181,16753541,9691,5713,7802,Tag0,unknown
1545074094471,0,19,4.1748046875E-6,24,100,0,725157,119348,79080,139181,16753541,9691,5713,7802,Tag0,unknown
1545074094471,0,-129,-2.8344726562500002E-5,24,100,0,725157,119348,79080,139181,16753541,9691,5713,7802,Tag0,unknown
1545074094472,0,92,2.021484375E-5,24,100,0,725157,119348,79080,139181,16753541,9691,5713,7802,Tag0,unknown
1545074094472,0,167,3.6694335937500004E-5,24,100,0,725157,119348,79080,139181,16753541,9691,5713,7802,Tag0,unknown
1545074094472,0,131,2.87841796875E-5,24,100,0,725157,119348,79080,139181,16753541,9691,5713,7802,Tag0,unknown
1545074094473,0,35,7.6904296875E-6,24,100,0,725157,119348,79080,139181,16753541,9691,5713,7802,Tag0,unknown
1545074094473,0,-170,-3.7353515625E-5,24,100,0,725157,119348,79080,139181,16753541,9691,5713,7802,Tag0,unknown
1545074094473,0,8,1.7578125E-6,24,100,0,725157,119348,79080,139181,16753541,9691,5713,7802,Tag0,unknown
1545074094473,0,357,7.844238281250001E-5,24,100,0,725157,119348,79080,139181,16753541,9691,5713,7802,Tag0,unknown
1545074094473,0,131,2.87841796875E-5,24,100,0,725157,119348,79080,139181,16753541,9691,5713,7802,Tag0,unknown
1545074094487,0,91,1.99951171875E-5,24,100,0,725157,119348,79080,139181,16753541,9691,5713,7802,Tag0,unknown
1545074094487,0,-376,-8.261718750000001E-5,24,100,0,725157,119348,79080,139181,16753541,9691,5713,7802,Tag0,unknown
1545074094487,0,25,5.4931640625E-6,24,100,0,725157,119348,79080,139181,16753541,9691,5713,7802,Tag0,unknown
1545074094488,0,130,2.8564453125E-5,24,100,0,725157,119348,79080,139181,16753541,9691,5713,7802,Tag0,unknown
1545074094488,0,208,4.5703125E-5,24,100,0,725157,119348,79080,139181,16753541,9691,5713,7802,Tag0,unknown
1545074094488,0,-105,-2.30712890625E-5,24,100,0,725157,119348,79080,139181,16753541,9691,5713,7802,Tag0,unknown
1545074094489,0,-135,-2.96630859375E-5,24,100,0,725157,119348,79080,139181,16753541,9691,5713,7802,Tag0,unknown
1545074094489,0,-321,-7.053222656250001E-5,24,100,0,725157,119348,79080,139181,16753541,9691,5713,7802,Tag0,unknown
1545074094503,0,278,6.108398437500001E-5,24,100,0,725157,119348,79080,139181,16753541,9691,5713,7802,Tag0,unknown
1545074094503,0,153,3.3618164062500004E-5,24,100,0,725157,119348,79080,139181,16753541,9691,5713,7802,Tag0,unknown
1545074094504,0,-91,-1.99951171875E-5,24,100,0,725157,119348,79080,139181,16753541,9691,5713,7802,Tag0,unknown
1545074094504,0,-355,-7.80029296875E-5,24,100,0,725157,119348,79080,139181,16753541,9691,5713,7802,Tag0,unknown
1545074094504,0,-311,-6.833496093750001E-5,24,100,0,725157,119348,79080,139181,16753541,9691,5713,7802,Tag0,unknown
1545074094504,0,269,5.9106445312499996E-5,24,100,0,725157,119348,79080,139181,16753541,9691,5713,7802,Tag0,unknown
1545074094504,0,170,3.7353515625E-5,24,100,0,725157,119348,79080,139181,16753541,9691,5713,7802,Tag0,unknown
1545074094505,0,-78,-1.7138671875E-5,24,100,0,725157,119348,79080,139181,16753541,9691,5713,7802,Tag0,unknown
1545074094505,0,-141,-3.09814453125E-5,24,100,0,725157,119348,79080,139181,16753541,9691,5713,7802,Tag0,unknown
1545074094519,0,-153,-3.3618164062500004E-5,24,100,0,725157,119348,79080,139181,16753541,9691,5713,7802,Tag0,unknown
1545074094519,0,-89,-1.95556640625E-5,24,100,0,725157,119348,79080,139181,16753541,9691,5713,7802,Tag0,unknown
1545074094519,0,141,3.09814453125E-5,24,100,0,725157,119348,79080,139181,16753541,9691,5713,7802,Tag0,unknown
1545074094520,0,-55,-1.20849609375E-5,24,100,0,725157,119348,79080,139181,16753541,9691,5713,7802,Tag0,unknown
1545074094520,0,-375,-8.23974609375E-5,24,100,0,725157,119348,79080,139181,16753541,9691,5713,7802,Tag0,unknown
1545074094520,0,-152,-3.33984375E-5,24,100,0,725157,119348,79080,139181,16753541,9691,5713,7802,Tag0,unknown
1545074094520,0,-106,-2.3291015625000003E-5,24,100,0,725157,119348,79080,139181,16753541,9691,5713,7802,Tag0,unknown
1545074094538,0,155,3.40576171875E-5,24,100,0,725157,119348,79080,139181,16753541,9691,5713,7802,Tag0,unknown
1545074094539,0,273,5.998535156250001E-5,24,100,0,725157,119348,79080,139181,16753541,9691,5713,7802,Tag0,unknown
1545074094541,0,-322,-7.0751953125E-5,24,100,0,725157,119348,79080,139181,16753541,9691,5713,7802,Tag0,unknown
1545074094541,0,-169,-3.7133789062499996E-5,24,100,0,725157,119348,79080,139181,16753541,9691,5713,7802,Tag0,unknown
1545074094542,0,92,2.021484375E-5,24,100,0,725157,119348,79080,139181,16753541,9691,5713,7802,Tag0,unknown
1545074094543,0,129,2.8344726562500002E-5,24,100,0,725157,119348,79080,139181,16753541,9691,5713,7802,Tag0,unknown
1545074094544,0,293,6.43798828125E-5,24,100,0,725157,119348,79080,139181,16753541,9691,5713,7802,Tag0,unknown
1545074094544,0,-269,-5.9106445312499996E-5,24,100,0,725157,119348,79080,139181,16753541,9691,5713,7802,Tag0,unknown
1545074094545,0,-145,-3.18603515625E-5,24,100,0,725157,119348,79080,139181,16753541,9691,5713,7802,Tag0,unknown
1545074094547,0,72,1.58203125E-5,24,100,0,725157,119348,79080,139181,16753541,9691,5713,7802,Tag0,unknown
1545074094556,0,378,8.3056640625E-5,24,100,0,725157,119348,79080,139181,16753541,9691,5713,7802,Tag0,unknown
1545074094557,0,322,7.0751953125E-5,24,100,0,725157,119348,79080,139181,16753541,9691,5713,7802,Tag0,unknown
1545074094558,0,-262,-5.7568359375E-5,24,100,0,725157,119348,79080,139181,16753541,9691,5713,7802,Tag0,unknown
1545074094559,0,-171,-3.75732421875E-5,24,100,0,725157,119348,79080,139181,16753541,9691,5713,7802,Tag0,unknown
1545074094559,0,9,1.9775390625E-6,24,100,0,725157,119348,79080,139181,16753541,9691,5713,7802,Tag0,unknown
1545074094560,0,323,7.09716796875E-5,24,100,0,725157,119348,79080,139181,16753541,9691,5713,7802,Tag0,unknown
1545074094560,0,333,7.316894531249999E-5,24,100,0,725157,119348,79080,139181,16753541,9691,5713,7802,Tag0,unknown
1545074094560,0,61,1.34033203125E-5,24,100,0,725157,119348,79080,139181,16753541,9691,5713,7802,Tag0,unknown
1545074094560,0,-381,-8.371582031250001E-5,24,100,0,725157,119348,79080,139181,16753541,9691,5713,7802,Tag0,unknown
1545074094569,0,26,5.712890625E-6,24,100,0,725157,119348,79080,139181,16753541,9691,5713,7802,Tag0,unknown
1545074094569,0,378,8.3056640625E-5,24,100,0,725157,119348,79080,139181,16753541,9691,5713,7802,Tag0,unknown
1545074094569,0,188,4.1308593750000004E-5,24,100,0,725157,119348,79080,139181,16753541,9691,5713,7802,Tag0,unknown
1545074094570,0,-122,-2.6806640625E-5,24,100,0,725157,119348,79080,139181,16753541,9691,5713,7802,Tag0,unknown
1545074094570,0,-136,-2.9882812500000002E-5,24,100,0,725157,119348,79080,139181,16753541,9691,5713,7802,Tag0,unknown
1545074094571,0,-298,-6.5478515625E-5,24,100,0,725157,119348,79080,139181,16753541,9691,5713,7802,Tag0,unknown
1545074094571,0,296,6.50390625E-5,24,100,0,725157,119348,79080,139181,16753541,9691,5713,7802,Tag0,unknown
1545074094587,0,136,2.9882812500000002E-5,24,100,0,725157,119348,79080,139181,16753541,9691,5713,7802,Tag0,unknown
1545074094587,0,112,2.4609375E-5,24,100,0,725157,119348,79080,139181,16753541,9691,5713,7802,Tag0,unknown
1545074094587,0,-149,-3.27392578125E-5,24,100,0,725157,119348,79080,139181,16753541,9691,5713,7802,Tag0,unknown
1545074094588,0,-330,-7.2509765625E-5,24,100,0,725157,119348,79080,139181,16753541,9691,5713,7802,Tag0,unknown
1545074094588,0,260,5.712890625E-5,24,100,0,725157,119348,79080,139181,16753541,9691,5713,7802,Tag0,unknown
1545074094588,0,131,2.87841796875E-5,24,100,0,725157,119348,79080,139181,16753541,9691,5713,7802,Tag0,unknown
1545074094588,0,119,2.6147460937500004E-5,24,100,0,725157,119348,79080,139181,16753541,9691,5713,7802,Tag0,unknown
1545074094589,0,-171,-3.75732421875E-5,24,100,0,725157,119348,79080,139181,16753541,9691,5713,7802,Tag0,unknown
1545074094589,0,-141,-3.09814453125E-5,24,100,0,725157,119348,79080,139181,16753541,9691,5713,7802,Tag0,unknown
1545074094603,0,-83,-1.82373046875E-5,24,100,0,725157,119348,79080,139181,16753541,9691,5713,7802,Tag0,unknown
1545074094604,0,352,7.734375E-5,24,100,0,725157,119348,79080,139181,16753541,9691,5713,7802,Tag0,unknown
1545074094604,0,-112,-2.4609375E-5,24,100,0,725157,119348,79080,139181,16753541,9691,5713,7802,Tag0,unknown
1545074094604,0,-136,-2.9882812500000002E-5,24,100,0,725157,119348,79080,139181,16753541,9691,5713,7802,Tag0,unknown
1545074094605,0,-138,-3.0322265625E-5,24,100,0,725157,119348,79080,139181,16753541,9691,5713,7802,Tag0,unknown
1545074094605,0,-85,-1.86767578125E-5,24,100,0,725157,119348,79080,139181,16753541,9691,5713,7802,Tag0,unknown
1545074094605,0,145,3.18603515625E-5,24,100,0,725157,119348,79080,139181,16753541,9691,5713,7802,Tag0,unknown
1545074094605,0,-41,-9.008789062499999E-6,24,100,0,725157,119348,79080,139181,16753541,9691,5713,7802,Tag0,unknown
1545074094605,0,-381,-8.371582031250001E-5,24,100,0,725157,119348,79080,139181,16753541,9691,5713,7802,Tag0,unknown
1545074094619,0,-204,-4.4824218749999996E-5,24,100,0,725157,119348,79080,139181,16753541,9691,5713,7802,Tag0,unknown
1545074094619,0,75,1.64794921875E-5,24,100,0,725157,119348,79080,139181,16753541,9691,5713,7802,Tag0,unknown
1545074094620,0,356,7.822265625E-5,24,100,0,725157,119348,79080,139181,16753541,9691,5713,7802,Tag0,unknown
1545074094620,0,-9,-1.9775390625E-6,24,100,0,725157,119348,79080,139181,16753541,9691,5713,7802,Tag0,unknown
1545074094620,0,-299,-6.56982421875E-5,24,100,0,725157,119348,79080,139181,16753541,9691,5713,7802,Tag0,unknown
1545074094621,0,-137,-3.0102539062499998E-5,24,100,0,725157,119348,79080,139181,16753541,9691,5713,7802,Tag0,unknown
1545074094621,0,113,2.48291015625E-5,24,100,0,725157,119348,79080,139181,16753541,9691,5713,7802,Tag0,unknown
1545074094621,0,151,3.31787109375E-5,24,100,0,725157,119348,79080,139181,16753541,9691,5713,7802,Tag0,unknown
1545074094642,0,317,6.96533203125E-5,24,100,0,725157,119348,79080,139181,16753541,9691,5713,7802,Tag0,unknown
