timestampMs,poorSignal,eegRawValue,eegRawValueVolts,attention,meditation,blinkStrength,delta,theta,alphaLow,alphaHigh,betaLow,betaHigh,gammaLow,gammaMid,tagEvent,location
1545003914413,0,58,1.2744140625E-5,66,29,43,16753500,3988,2935,4122,9862,2070,538,277,Tag0,unknown
1545003914421,0,72,1.58203125E-5,66,29,43,16753500,3988,2935,4122,9862,2070,538,277,Tag0,unknown
1545003914422,0,68,1.4941406250000001E-5,66,29,43,16753500,3988,2935,4122,9862,2070,538,277,Tag0,unknown
1545003914422,0,65,1.42822265625E-5,66,29,43,16753500,3988,2935,4122,9862,2070,538,277,Tag0,unknown
1545003914422,0,55,1.20849609375E-5,66,29,43,16753500,3988,2935,4122,9862,2070,538,277,Tag0,unknown
1545003914422,0,50,1.0986328125E-5,66,29,43,16753500,3988,2935,4122,9862,2070,538,277,Tag0,unknown
1545003914422,0,52,1.142578125E-5,66,29,43,16753500,3988,2935,4122,9862,2070,538,277,Tag0,unknown
1545003914422,0,57,1.2524414062500001E-5,66,29,43,16753500,3988,2935,4122,9862,2070,538,277,Tag0,unknown
1545003914423,0,70,1.5380859375E-5,66,29,43,16753500,3988,2935,4122,9862,2070,538,277,Tag0,unknown
1545003914423,0,72,1.58203125E-5,66,29,43,16753500,3988,2935,4122,9862,2070,538,277,Tag0,unknown
1545003914423,0,64,1.40625E-5,66,29,43,16753500,3988,2935,4122,9862,2070,538,277,Tag0,unknown
1545003914423,0,70,1.5380859375E-5,66,29,43,16753500,3988,2935,4122,9862,2070,538,277,Tag0,unknown
1545003914423,0,89,1.95556640625E-5,66,29,43,16753500,3988,2935,4122,9862,2070,538,277,Tag0,unknown
1545003914423,0,89,1.95556640625E-5,66,29,43,16753500,3988,2935,4122,9862,2070,538,277,Tag0,unknown
1545003914424,0,64,1.40625E-5,66,29,43,16753500,3988,2935,4122,9862,2070,538,277,Tag0,unknown
1545003914424,0,49,1.07666015625E-5,66,29,43,16753500,3988,2935,4122,9862,2070,538,277,Tag0,unknown
1545003914424,0,54,1.1865234375000001E-5,66,29,43,16753500,3988,2935,4122,9862,2070,538,277,Tag0,unknown
1545003914424,0,72,1.58203125E-5,66,29,43,16753500,3988,2935,4122,9862,2070,538,277,Tag0,unknown
1545003914424,0,91,1.99951171875E-5,66,29,43,16753500,3988,2935,4122,9862,2070,538,277,Tag0,unknown
1545003914424,0,83,1.82373046875E-5,66,29,43,16753500,3988,2935,4122,9862,2070,538,277,Tag0,unknown
1545003914424,0,65,1.42822265625E-5,66,29,43,16753500,3988,2935,4122,9862,2070,538,277,Tag0,unknown
1545003914425,0,49,1.07666015625E-5,66,29,43,16753500,3988,2935,4122,9862,2070,538,277,Tag0,unknown
1545003914425,0,38,8.349609375E-6,66,29,43,16753500,3988,2935,4122,9862,2070,538,277,Tag0,unknown
1545003914425,0,43,9.448242187500001E-6,66,29,43,16753500,3988,2935,4122,9862,2070,538,277,Tag0,unknown
1545003914425,0,55,1.20849609375E-5,66,29,43,16753500,3988,2935,4122,9862,2070,538,277,Tag0,unknown
1545003914425,0,59,1.29638671875E-5,66,29,43,16753500,3988,2935,4122,9862,2070,538,277,Tag0,unknown
1545003914425,0,55,1.20849609375E-5,66,29,43,16753500,3988,2935,4122,9862,2070,538,277,Tag0,unknown
1545003914425,0,41,9.008789062499999E-6,66,29,43,16753500,3988,2935,4122,9862,2070,538,277,Tag0,unknown
1545003914426,0,38,8.349609375E-6,66,29,43,16753500,3988,2935,4122,9862,2070,538,277,Tag0,unknown
1545003914426,0,48,1.0546875E-5,66,29,43,16753500,3988,2935,4122,9862,2070,538,277,Tag0,unknown
1545003914426,0,56,1.23046875E-5,66,29,43,16753500,3988,2935,4122,9862,2070,538,277,Tag0,unknown
1545003914426,0,56,1.23046875E-5,66,29,43,16753500,3988,2935,4122,9862,2070,538,277,Tag0,unknown
1545003914426,0,44,9.66796875E-6,66,29,43,16753500,3988,2935,4122,9862,2070,538,277,Tag0,unknown
1545003914426,0,39,8.5693359375E-6,66,29,43,16753500,3988,2935,4122,9862,2070,538,277,Tag0,unknown
1545003914427,0,40,8.7890625E-6,66,29,43,16753500,3988,2935,4122,9862,2070,538,277,Tag0,unknown
1545003914471,0,45,9.8876953125E-6,66,29,43,16753500,3988,2935,4122,9862,2070,538,277,Tag0,unknown
1545003914488,0,56,1.23046875E-5,66,29,43,16753500,3988,2935,4122,9862,2070,538,277,Tag0,unknown
1545003914488,0,69,1.51611328125E-5,66,29,43,16753500,3988,2935,4122,9862,2070,538,277,Tag0,unknown
1545003914488,0,70,1.5380859375E-5,66,29,43,16753500,3988,2935,4122,9862,2070,538,277,Tag0,unknown
1545003914488,0,64,1.40625E-5,66,29,43,16753500,3988,2935,4122,9862,2070,538,277,Tag0,unknown
1545003914488,0,58,1.2744140625E-5,66,29,43,16753500,3988,2935,4122,9862,2070,538,277,Tag0,unknown
1545003914488,0,68,1.4941406250000001E-5,66,29,43,16753500,3988,2935,4122,9862,2070,538,277,Tag0,unknown
1545003914488,0,77,1.69189453125E-5,66,29,43,16753500,3988,2935,4122,9862,2070,538,277,Tag0,unknown
1545003914488,0,76,1.669921875E-5,66,29,43,16753500,3988,2935,4122,9862,2070,538,277,Tag0,unknown
1545003914489,0,83,1.82373046875E-5,66,29,43,16753500,3988,2935,4122,9862,2070,538,277,Tag0,unknown
1545003914489,0,76,1.669921875E-5,66,29,43,16753500,3988,2935,4122,9862,2070,538,277,Tag0,unknown
1545003914489,0,61,1.34033203125E-5,66,29,43,16753500,3988,2935,4122,9862,2070,538,277,Tag0,unknown
1545003914489,0,54,1.1865234375000001E-5,66,29,43,16753500,3988,2935,4122,9862,2070,538,277,Tag0,unknown
1545003914489,0,52,1.142578125E-5,66,29,43,16753500,3988,2935,4122,9862,2070,538,277,Tag0,unknown
1545003914489,0,45,9.8876953125E-6,66,29,43,16753500,3988,2935,4122,9862,2070,538,277,Tag0,unknown
1545003914489,0,32,7.03125E-6,66,29,43,16753500,3988,2935,4122,9862,2070,538,277,Tag0,unknown
1545003914489,0,29,6.3720703125E-6,66,29,43,16753500,3988,2935,4122,9862,2070,538,277,Tag0,unknown
1545003914489,0,37,8.1298828125E-6,66,29,43,16753500,3988,2935,4122,9862,2070,538,277,Tag0,unknown
1545003914490,0,42,9.228515625000002E-6,66,29,43,16753500,3988,2935,4122,9862,2070,538,277,Tag0,unknown
1545003914490,0,45,9.8876953125E-6,66,29,43,16753500,3988,2935,4122,9862,2070,538,277,Tag0,unknown
1545003914490,0,55,1.20849609375E-5,66,29,43,16753500,3988,2935,4122,9862,2070,538,277,Tag0,unknown
1545003914490,0,53,1.1645507812500002E-5,66,29,43,16753500,3988,2935,4122,9862,2070,538,277,Tag0,unknown
1545003914490,0,34,7.4707031250000005E-6,66,29,43,16753500,3988,2935,4122,9862,2070,538,277,Tag0,unknown
1545003914490,0,20,4.39453125E-6,66,29,43,16753500,3988,2935,4122,9862,2070,538,277,Tag0,unknown
1545003914490,0,28,6.15234375E-6,66,29,43,16753500,3988,2935,4122,9862,2070,538,277,Tag0,unknown
1545003914490,0,48,1.0546875E-5,66,29,43,16753500,3988,2935,4122,9862,2070,538,277,Tag0,unknown
1545003914491,0,60,1.318359375E-5,66,29,43,16753500,3988,2935,4122,9862,2070,538,277,Tag0,unknown
1545003914491,0,58,1.2744140625E-5,66,29,43,16753500,3988,2935,4122,9862,2070,538,277,Tag0,unknown
1545003914491,0,57,1.2524414062500001E-5,66,29,43,16753500,3988,2935,4122,9862,2070,538,277,Tag0,unknown
1545003914491,0,72,1.58203125E-5,66,29,43,16753500,3988,2935,4122,9862,2070,538,277,Tag0,unknown
1545003914491,0,86,1.8896484375000003E-5,66,29,43,16753500,3988,2935,4122,9862,2070,538,277,Tag0,unknown
1545003914491,0,90,1.9775390625E-5,66,29,43,16753500,3988,2935,4122,9862,2070,538,277,Tag0,unknown
1545003914491,0,86,1.8896484375000003E-5,66,29,43,16753500,3988,2935,4122,9862,2070,538,277,Tag0,unknown
1545003914491,0,81,1.77978515625E-5,66,29,43,16753500,3988,2935,4122,9862,2070,538,277,Tag0,unknown
1545003914491,0,80,1.7578125E-5,66,29,43,16753500,3988,2935,4122,9862,2070,538,277,Tag0,unknown
1545003914492,0,72,1.58203125E-5,66,29,43,16753500,3988,2935,4122,9862,2070,538,277,Tag0,unknown
1545003914492,0,58,1.2744140625E-5,66,29,43,16753500,3988,2935,4122,9862,2070,538,277,Tag0,unknown
1545003914492,0,50,1.0986328125E-5,66,29,43,16753500,3988,2935,4122,9862,2070,538,277,Tag0,unknown
1545003914492,0,45,9.8876953125E-6,66,29,43,16753500,3988,2935,4122,9862,2070,538,277,Tag0,unknown
1545003914492,0,43,9.448242187500001E-6,66,29,43,16753500,3988,2935,4122,9862,2070,538,277,Tag0,unknown
1545003914492,0,39,8.5693359375E-6,66,29,43,16753500,3988,2935,4122,9862,2070,538,277,Tag0,unknown
1545003914492,0,25,5.4931640625E-6,66,29,43,16753500,3988,2935,4122,9862,2070,538,277,Tag0,unknown
1545003914493,0,32,7.03125E-6,66,29,43,16753500,3988,2935,4122,9862,2070,538,277,Tag0,unknown
1545003914493,0,45,9.8876953125E-6,66,29,43,16753500,3988,2935,4122,9862,2070,538,277,Tag0,unknown
1545003914493,0,51,1.1206054687499999E-5,66,29,43,16753500,3988,2935,4122,9862,2070,538,277,Tag0,unknown
1545003914493,0,36,7.91015625E-6,66,29,43,16753500,3988,2935,4122,9862,2070,538,277,Tag0,unknown
1545003914493,0,24,5.2734375E-6,66,29,43,16753500,3988,2935,4122,9862,2070,538,277,Tag0,unknown
1545003914493,0,21,4.614257812500001E-6,66,29,43,16753500,3988,2935,4122,9862,2070,538,277,Tag0,unknown
1545003914493,0,19,4.1748046875E-6,66,29,43,16753500,3988,2935,4122,9862,2070,538,277,Tag0,unknown
1545003914494,0,19,4.1748046875E-6,66,29,43,16753500,3988,2935,4122,9862,2070,538,277,Tag0,unknown
1545003914494,0,33,7.2509765625E-6,66,29,43,16753500,3988,2935,4122,9862,2070,538,277,Tag0,unknown
1545003914494,0,38,8.349609375E-6,66,29,43,16753500,3988,2935,4122,9862,2070,538,277,Tag0,unknown
1545003914494,0,40,8.7890625E-6,66,29,43,16753500,3988,2935,4122,9862,2070,538,277,Tag0,unknown
1545003914494,0,41,9.008789062499999E-6,66,29,43,16753500,3988,2935,4122,9862,2070,538,277,Tag0,unknown
1545003914494,0,36,7.91015625E-6,66,29,43,16753500,3988,2935,4122,9862,2070,538,277,Tag0,unknown
1545003914494,0,34,7.4707031250000005E-6,66,29,43,16753500,3988,2935,4122,9862,2070,538,277,Tag0,unknown
1545003914495,0,38,8.349609375E-6,66,29,43,16753500,3988,2935,4122,9862,2070,538,277,Tag0,unknown
1545003914495,0,49,1.07666015625E-5,66,29,43,16753500,3988,2935,4122,9862,2070,538,277,Tag0,unknown
1545003914495,0,49,1.07666015625E-5,66,29,43,16753500,3988,2935,4122,9862,2070,538,277,Tag0,unknown
1545003914495,0,38,8.349609375E-6,66,29,43,16753500,3988,2935,4122,9862,2070,538,277,Tag0,unknown
1545003914495,0,24,5.2734375E-6,66,29,43,16753500,3988,2935,4122,9862,2070,538,277,Tag0,unknown
1545003914495,0,11,2.4169921875E-6,66,29,43,16753500,3988,2935,4122,9862,2070,538,277,Tag0,unknown
1545003914495,0,0,0.0,66,29,43,16753500,3988,2935,4122,9862,2070,538,277,Tag0,unknown
1545003914496,0,-259,-5.69091796875E-5,66,29,43,16753500,3988,2935,4122,9862,2070,538,277,Tag0,unknown
1545003914496,0,4,8.7890625E-7,66,29,43,16753500,3988,2935,4122,9862,2070,538,277,Tag0,unknown
1545003914496,0,9,1.9775390625E-6,66,29,43,16753500,3988,2935,4122,9862,2070,538,277,Tag0,unknown
1545003914496,0,11,2.4169921875E-6,66,29,43,16753500,3988,2935,4122,9862,2070,538,277,Tag0,unknown
1545003914496,0,16,3.515625E-6,66,29,43,16753500,3988,2935,4122,9862,2070,538,277,Tag0,unknown
1545003914496,0,21,4.614257812500001E-6,66,29,43,16753500,3988,2935,4122,9862,2070,538,277,Tag0,unknown
1545003914496,0,24,5.2734375E-6,66,29,43,16753500,3988,2935,4122,9862,2070,538,277,Tag0,unknown
1545003914497,0,35,7.6904296875E-6,66,29,43,16753500,3988,2935,4122,9862,2070,538,277,Tag0,unknown
1545003914497,0,55,1.20849609375E-5,66,29,43,16753500,3988,2935,4122,9862,2070,538,277,Tag0,unknown
1545003914497,0,71,1.56005859375E-5,66,29,43,16753500,3988,2935,4122,9862,2070,538,277,Tag0,unknown
1545003914497,0,76,1.669921875E-5,66,29,43,16753500,3988,2935,4122,9862,2070,538,277,Tag0,unknown
1545003914497,0,75,1.64794921875E-5,66,29,43,16753500,3988,2935,4122,9862,2070,538,277,Tag0,unknown
1545003914500,0,72,1.58203125E-5,64,40,43,323197,31052,15728,5211,16142,13744,2221,1943,Tag0,unknown
1545003914500,0,69,1.51611328125E-5,64,40,43,323197,31052,15728,5211,16142,13744,2221,1943,Tag0,unknown
1545003914500,0,49,1.07666015625E-5,64,40,43,323197,31052,15728,5211,16142,13744,2221,1943,Tag0,unknown
1545003914500,0,45,9.8876953125E-6,64,40,43,323197,31052,15728,5211,16142,13744,2221,1943,Tag0,unknown
1545003914500,0,66,1.4501953125E-5,64,40,43,323197,31052,15728,5211,16142,13744,2221,1943,Tag0,unknown
1545003914500,0,74,1.6259765625E-5,64,40,43,323197,31052,15728,5211,16142,13744,2221,1943,Tag0,unknown
1545003914501,0,60,1.318359375E-5,64,40,43,323197,31052,15728,5211,16142,13744,2221,1943,Tag0,unknown
1545003914501,0,48,1.0546875E-5,64,40,43,323197,31052,15728,5211,16142,13744,2221,1943,Tag0,unknown
1545003914501,0,25,5.4931640625E-6,64,40,43,323197,31052,15728,5211,16142,13744,2221,1943,Tag0,unknown
1545003914501,0,24,5.2734375E-6,64,40,43,323197,31052,15728,5211,16142,13744,2221,1943,Tag0,unknown
1545003914501,0,41,9.008789062499999E-6,64,40,43,323197,31052,15728,5211,16142,13744,2221,1943,Tag0,unknown
1545003914501,0,48,1.0546875E-5,64,40,43,323197,31052,15728,5211,16142,13744,2221,1943,Tag0,unknown
1545003914502,0,41,9.008789062499999E-6,64,40,43,323197,31052,15728,5211,16142,13744,2221,1943,Tag0,unknown
1545003914502,0,40,8.7890625E-6,64,40,43,323197,31052,15728,5211,16142,13744,2221,1943,Tag0,unknown
1545003914502,0,43,9.448242187500001E-6,64,40,43,323197,31052,15728,5211,16142,13744,2221,1943,Tag0,unknown
1545003914502,0,57,1.2524414062500001E-5,64,40,43,323197,31052,15728,5211,16142,13744,2221,1943,Tag0,unknown
1545003914502,0,61,1.34033203125E-5,64,40,43,323197,31052,15728,5211,16142,13744,2221,1943,Tag0,unknown
1545003914502,0,49,1.07666015625E-5,64,40,43,323197,31052,15728,5211,16142,13744,2221,1943,Tag0,unknown
1545003914503,0,37,8.1298828125E-6,64,40,43,323197,31052,15728,5211,16142,13744,2221,1943,Tag0,unknown
1545003914503,0,37,8.1298828125E-6,64,40,43,323197,31052,15728,5211,16142,13744,2221,1943,Tag0,unknown
1545003914503,0,41,9.008789062499999E-6,64,40,43,323197,31052,15728,5211,16142,13744,2221,1943,Tag0,unknown
1545003914503,0,48,1.0546875E-5,64,40,43,323197,31052,15728,5211,16142,13744,2221,1943,Tag0,unknown
1545003914503,0,48,1.0546875E-5,64,40,43,323197,31052,15728,5211,16142,13744,2221,1943,Tag0,unknown
1545003914503,0,43,9.448242187500001E-6,64,40,43,323197,31052,15728,5211,16142,13744,2221,1943,Tag0,unknown
1545003914504,0,27,5.9326171875000005E-6,64,40,43,323197,31052,15728,5211,16142,13744,2221,1943,Tag0,unknown
1545003914504,0,17,3.7353515625000003E-6,64,40,43,323197,31052,15728,5211,16142,13744,2221,1943,Tag0,unknown
1545003914504,0,27,5.9326171875000005E-6,64,40,43,323197,31052,15728,5211,16142,13744,2221,1943,Tag0,unknown
1545003914504,0,54,1.1865234375000001E-5,64,40,43,323197,31052,15728,5211,16142,13744,2221,1943,Tag0,unknown
1545003914504,0,65,1.42822265625E-5,64,40,43,323197,31052,15728,5211,16142,13744,2221,1943,Tag0,unknown
1545003914504,0,42,9.228515625000002E-6,64,40,43,323197,31052,15728,5211,16142,13744,2221,1943,Tag0,unknown
1545003914505,0,-273,-5.998535156250001E-5,64,40,43,323197,31052,15728,5211,16142,13744,2221,1943,Tag0,unknown
1545003914539,0,-322,-7.0751953125E-5,64,40,43,323197,31052,15728,5211,16142,13744,2221,1943,Tag0,unknown
1545003914555,0,-305,-6.70166015625E-5,64,40,43,323197,31052,15728,5211,16142,13744,2221,1943,Tag0,unknown
1545003914555,0,39,8.5693359375E-6,64,40,43,323197,31052,15728,5211,16142,13744,2221,1943,Tag0,unknown
1545003914555,0,-122,-2.6806640625E-5,64,40,43,323197,31052,15728,5211,16142,13744,2221,1943,Tag0,unknown
1545003914555,0,-79,-1.7358398437500003E-5,64,40,43,323197,31052,15728,5211,16142,13744,2221,1943,Tag0,unknown
1545003914555,0,-83,-1.82373046875E-5,64,40,43,323197,31052,15728,5211,16142,13744,2221,1943,Tag0,unknown
1545003914556,0,-85,-1.86767578125E-5,64,40,43,323197,31052,15728,5211,16142,13744,2221,1943,Tag0,unknown
1545003914556,0,-61,-1.34033203125E-5,64,40,43,323197,31052,15728,5211,16142,13744,2221,1943,Tag0,unknown
1545003914556,0,-19,-4.1748046875E-6,64,40,43,323197,31052,15728,5211,16142,13744,2221,1943,Tag0,unknown
1545003914556,0,282,6.1962890625E-5,64,40,43,323197,31052,15728,5211,16142,13744,2221,1943,Tag0,unknown
1545003914557,0,327,7.18505859375E-5,64,40,43,323197,31052,15728,5211,16142,13744,2221,1943,Tag0,unknown
1545003914557,0,357,7.844238281250001E-5,64,40,43,323197,31052,15728,5211,16142,13744,2221,1943,Tag0,unknown
1545003914557,0,360,7.91015625E-5,64,40,43,323197,31052,15728,5211,16142,13744,2221,1943,Tag0,unknown
1545003914558,0,360,7.91015625E-5,64,40,43,323197,31052,15728,5211,16142,13744,2221,1943,Tag0,unknown
1545003914558,0,342,7.5146484375E-5,64,40,43,323197,31052,15728,5211,16142,13744,2221,1943,Tag0,unknown
1545003914558,0,343,7.53662109375E-5,64,40,43,323197,31052,15728,5211,16142,13744,2221,1943,Tag0,unknown
1545003914558,0,136,2.9882812500000002E-5,64,40,43,323197,31052,15728,5211,16142,13744,2221,1943,Tag0,unknown
1545003914558,0,187,4.10888671875E-5,64,40,43,323197,31052,15728,5211,16142,13744,2221,1943,Tag0,unknown
1545003914559,0,225,4.94384765625E-5,64,40,43,323197,31052,15728,5211,16142,13744,2221,1943,Tag0,unknown
1545003914559,0,521,1.1447753906250001E-4,64,40,43,323197,31052,15728,5211,16142,13744,2221,1943,Tag0,unknown
1545003914560,0,562,1.23486328125E-4,64,40,43,323197,31052,15728,5211,16142,13744,2221,1943,Tag0,unknown
1545003914560,0,569,1.250244140625E-4,64,40,43,323197,31052,15728,5211,16142,13744,2221,1943,Tag0,unknown
1545003914560,0,560,1.23046875E-4,64,40,43,323197,31052,15728,5211,16142,13744,2221,1943,Tag0,unknown
1545003914560,0,557,1.223876953125E-4,64,40,43,323197,31052,15728,5211,16142,13744,2221,1943,Tag0,unknown
1545003914560,0,561,1.232666015625E-4,64,40,43,323197,31052,15728,5211,16142,13744,2221,1943,Tag0,unknown
1545003914560,0,566,1.2436523437500002E-4,64,40,43,323197,31052,15728,5211,16142,13744,2221,1943,Tag0,unknown
1545003914561,0,579,1.272216796875E-4,64,40,43,323197,31052,15728,5211,16142,13744,2221,1943,Tag0,unknown
1545003914561,0,587,1.2897949218750003E-4,64,40,43,323197,31052,15728,5211,16142,13744,2221,1943,Tag0,unknown
1545003914561,0,614,1.34912109375E-4,64,40,43,323197,31052,15728,5211,16142,13744,2221,1943,Tag0,unknown
1545003914561,0,393,8.63525390625E-5,64,40,43,323197,31052,15728,5211,16142,13744,2221,1943,Tag0,unknown
1545003914561,0,404,8.876953125000001E-5,64,40,43,323197,31052,15728,5211,16142,13744,2221,1943,Tag0,unknown
1545003914561,0,400,8.7890625E-5,64,40,43,323197,31052,15728,5211,16142,13744,2221,1943,Tag0,unknown
1545003914561,0,404,8.876953125000001E-5,64,40,43,323197,31052,15728,5211,16142,13744,2221,1943,Tag0,unknown
1545003914603,0,419,9.206542968750001E-5,64,40,43,323197,31052,15728,5211,16142,13744,2221,1943,Tag0,unknown
1545003914621,0,427,9.382324218750001E-5,64,40,43,323197,31052,15728,5211,16142,13744,2221,1943,Tag0,unknown
1545003914623,0,419,9.206542968750001E-5,64,40,43,323197,31052,15728,5211,16142,13744,2221,1943,Tag0,unknown
1545003914623,0,407,8.94287109375E-5,64,40,43,323197,31052,15728,5211,16142,13744,2221,1943,Tag0,unknown
1545003914624,0,393,8.63525390625E-5,64,40,43,323197,31052,15728,5211,16142,13744,2221,1943,Tag0,unknown
1545003914624,0,627,1.377685546875E-4,64,40,43,323197,31052,15728,5211,16142,13744,2221,1943,Tag0,unknown
1545003914624,0,593,1.3029785156250002E-4,64,40,43,323197,31052,15728,5211,16142,13744,2221,1943,Tag0,unknown
1545003914624,0,560,1.23046875E-4,64,40,43,323197,31052,15728,5211,16142,13744,2221,1943,Tag0,unknown
1545003914624,0,529,1.162353515625E-4,64,40,43,323197,31052,15728,5211,16142,13744,2221,1943,Tag0,unknown
1545003914624,0,253,5.55908203125E-5,64,40,43,323197,31052,15728,5211,16142,13744,2221,1943,Tag0,unknown
1545003914624,0,247,5.42724609375E-5,64,40,43,323197,31052,15728,5211,16142,13744,2221,1943,Tag0,unknown
1545003914625,0,228,5.0097656250000005E-5,64,40,43,323197,31052,15728,5211,16142,13744,2221,1943,Tag0,unknown
1545003914625,0,185,4.06494140625E-5,64,40,43,323197,31052,15728,5211,16142,13744,2221,1943,Tag0,unknown
1545003914625,0,137,3.0102539062499998E-5,64,40,43,323197,31052,15728,5211,16142,13744,2221,1943,Tag0,unknown
1545003914625,0,358,7.8662109375E-5,64,40,43,323197,31052,15728,5211,16142,13744,2221,1943,Tag0,unknown
1545003914625,0,331,7.272949218750001E-5,64,40,43,323197,31052,15728,5211,16142,13744,2221,1943,Tag0,unknown
1545003914625,0,295,6.48193359375E-5,64,40,43,323197,31052,15728,5211,16142,13744,2221,1943,Tag0,unknown
1545003914625,0,-7,-1.5380859375E-6,64,40,43,323197,31052,15728,5211,16142,13744,2221,1943,Tag0,unknown
1545003914626,0,-23,-5.0537109375E-6,64,40,59,323197,31052,15728,5211,16142,13744,2221,1943,Tag0,unknown
1545003914626,0,-30,-6.591796875E-6,64,40,59,323197,31052,15728,5211,16142,13744,2221,1943,Tag0,unknown
1545003914626,0,-52,-1.142578125E-5,64,40,59,323197,31052,15728,5211,16142,13744,2221,1943,Tag0,unknown
1545003914626,0,-78,-1.7138671875E-5,64,40,59,323197,31052,15728,5211,16142,13744,2221,1943,Tag0,unknown
1545003914627,0,-118,-2.5927734375E-5,64,40,59,323197,31052,15728,5211,16142,13744,2221,1943,Tag0,unknown
1545003914627,0,99,2.1752929687500003E-5,64,40,59,323197,31052,15728,5211,16142,13744,2221,1943,Tag0,unknown
1545003914627,0,57,1.2524414062500001E-5,64,40,59,323197,31052,15728,5211,16142,13744,2221,1943,Tag0,unknown
1545003914627,0,41,9.008789062499999E-6,64,40,59,323197,31052,15728,5211,16142,13744,2221,1943,Tag0,unknown
1545003914627,0,43,9.448242187500001E-6,64,40,59,323197,31052,15728,5211,16142,13744,2221,1943,Tag0,unknown
1545003914627,0,43,9.448242187500001E-6,64,40,59,323197,31052,15728,5211,16142,13744,2221,1943,Tag0,unknown
1545003914627,0,25,5.4931640625E-6,64,40,59,323197,31052,15728,5211,16142,13744,2221,1943,Tag0,unknown
1545003914627,0,-264,-5.80078125E-5,64,40,59,323197,31052,15728,5211,16142,13744,2221,1943,Tag0,unknown
1545003914628,0,-291,-6.39404296875E-5,64,40,59,323197,31052,15728,5211,16142,13744,2221,1943,Tag0,unknown
1545003914628,0,-285,-6.26220703125E-5,64,40,59,323197,31052,15728,5211,16142,13744,2221,1943,Tag0,unknown
1545003914628,0,-261,-5.73486328125E-5,64,40,59,323197,31052,15728,5211,16142,13744,2221,1943,Tag0,unknown
1545003914672,0,3,6.591796875E-7,64,40,59,323197,31052,15728,5211,16142,13744,2221,1943,Tag0,unknown
1545003914688,0,-266,-5.8447265625E-5,64,40,59,323197,31052,15728,5211,16142,13744,2221,1943,Tag0,unknown
1545003914688,0,-294,-6.4599609375E-5,64,40,59,323197,31052,15728,5211,16142,13744,2221,1943,Tag0,unknown
1545003914688,0,-309,-6.78955078125E-5,64,40,59,323197,31052,15728,5211,16142,13744,2221,1943,Tag0,unknown
1545003914688,0,-302,-6.6357421875E-5,64,40,59,323197,31052,15728,5211,16142,13744,2221,1943,Tag0,unknown
1545003914689,0,-286,-6.2841796875E-5,64,40,59,323197,31052,15728,5211,16142,13744,2221,1943,Tag0,unknown
1545003914689,0,-297,-6.525878906250001E-5,64,40,59,323197,31052,15728,5211,16142,13744,2221,1943,Tag0,unknown
1545003914689,0,-332,-7.294921875E-5,64,40,59,323197,31052,15728,5211,16142,13744,2221,1943,Tag0,unknown
1545003914689,0,-379,-8.32763671875E-5,64,40,59,323197,31052,15728,5211,16142,13744,2221,1943,Tag0,unknown
1545003914689,0,-147,-3.22998046875E-5,64,40,59,323197,31052,15728,5211,16142,13744,2221,1943,Tag0,unknown
1545003914689,0,-139,-3.0541992187500004E-5,64,40,59,323197,31052,15728,5211,16142,13744,2221,1943,Tag0,unknown
1545003914689,0,-135,-2.96630859375E-5,64,40,59,323197,31052,15728,5211,16142,13744,2221,1943,Tag0,unknown
1545003914690,0,-161,-3.53759765625E-5,64,40,59,323197,31052,15728,5211,16142,13744,2221,1943,Tag0,unknown
1545003914690,0,-206,-4.5263671875E-5,64,40,59,323197,31052,15728,5211,16142,13744,2221,1943,Tag0,unknown
1545003914690,0,-244,-5.361328125E-5,64,40,59,323197,31052,15728,5211,16142,13744,2221,1943,Tag0,unknown
1545003914690,0,-250,-5.4931640625E-5,64,40,59,323197,31052,15728,5211,16142,13744,2221,1943,Tag0,unknown
1545003914690,0,-253,-5.55908203125E-5,64,40,59,323197,31052,15728,5211,16142,13744,2221,1943,Tag0,unknown
1545003914690,0,-532,-1.1689453125E-4,64,40,59,323197,31052,15728,5211,16142,13744,2221,1943,Tag0,unknown
1545003914690,0,-552,-1.212890625E-4,64,40,59,323197,31052,15728,5211,16142,13744,2221,1943,Tag0,unknown
1545003914691,0,-570,-1.25244140625E-4,64,40,59,323197,31052,15728,5211,16142,13744,2221,1943,Tag0,unknown
1545003914691,0,-580,-1.2744140625E-4,64,40,59,323197,31052,15728,5211,16142,13744,2221,1943,Tag0,unknown
1545003914691,0,-583,-1.281005859375E-4,64,40,59,323197,31052,15728,5211,16142,13744,2221,1943,Tag0,unknown
1545003914691,0,-599,-1.316162109375E-4,64,40,59,323197,31052,15728,5211,16142,13744,2221,1943,Tag0,unknown
1545003914691,0,-620,-1.3623046875E-4,64,40,59,323197,31052,15728,5211,16142,13744,2221,1943,Tag0,unknown
1545003914691,0,-617,-1.355712890625E-4,64,40,59,323197,31052,15728,5211,16142,13744,2221,1943,Tag0,unknown
1545003914691,0,-600,-1.318359375E-4,64,40,59,323197,31052,15728,5211,16142,13744,2221,1943,Tag0,unknown
1545003914692,0,-603,-1.3249511718750002E-4,64,40,59,323197,31052,15728,5211,16142,13744,2221,1943,Tag0,unknown
1545003914692,0,-620,-1.3623046875E-4,64,40,59,323197,31052,15728,5211,16142,13744,2221,1943,Tag0,unknown
1545003914692,0,-635,-1.395263671875E-4,64,40,59,323197,31052,15728,5211,16142,13744,2221,1943,Tag0,unknown
1545003914692,0,-395,-8.67919921875E-5,64,40,59,323197,31052,15728,5211,16142,13744,2221,1943,Tag0,unknown
1545003914692,0,-404,-8.876953125000001E-5,64,40,59,323197,31052,15728,5211,16142,13744,2221,1943,Tag0,unknown
1545003914693,0,-408,-8.964843749999999E-5,64,40,59,323197,31052,15728,5211,16142,13744,2221,1943,Tag0,unknown
1545003914693,0,-420,-9.228515625E-5,64,40,59,323197,31052,15728,5211,16142,13744,2221,1943,Tag0,unknown
1545003914693,0,-423,-9.29443359375E-5,64,40,59,323197,31052,15728,5211,16142,13744,2221,1943,Tag0,unknown
1545003914693,0,-413,-9.07470703125E-5,64,40,59,323197,31052,15728,5211,16142,13744,2221,1943,Tag0,unknown
1545003914737,0,-401,-8.811035156250001E-5,64,40,59,323197,31052,15728,5211,16142,13744,2221,1943,Tag0,unknown
1545003914755,0,-390,-8.5693359375E-5,64,40,59,323197,31052,15728,5211,16142,13744,2221,1943,Tag0,unknown
1545003914755,0,-630,-1.38427734375E-4,64,40,59,323197,31052,15728,5211,16142,13744,2221,1943,Tag0,unknown
1545003914756,0,-602,-1.3227539062500001E-4,64,40,59,323197,31052,15728,5211,16142,13744,2221,1943,Tag0,unknown
1545003914756,0,-572,-1.2568359375E-4,64,40,59,323197,31052,15728,5211,16142,13744,2221,1943,Tag0,unknown
1545003914756,0,-561,-1.232666015625E-4,64,40,59,323197,31052,15728,5211,16142,13744,2221,1943,Tag0,unknown
1545003914756,0,-566,-1.2436523437500002E-4,64,40,59,323197,31052,15728,5211,16142,13744,2221,1943,Tag0,unknown
1545003914756,0,-572,-1.2568359375E-4,64,40,59,323197,31052,15728,5211,16142,13744,2221,1943,Tag0,unknown
1545003914756,0,-577,-1.2678222656250002E-4,64,40,59,323197,31052,15728,5211,16142,13744,2221,1943,Tag0,unknown
1545003914757,0,-584,-1.2832031250000002E-4,64,40,59,323197,31052,15728,5211,16142,13744,2221,1943,Tag0,unknown
1545003914757,0,-595,-1.307373046875E-4,64,40,59,323197,31052,15728,5211,16142,13744,2221,1943,Tag0,unknown
1545003914757,0,-609,-1.338134765625E-4,64,40,59,323197,31052,15728,5211,16142,13744,2221,1943,Tag0,unknown
1545003914757,0,-618,-1.35791015625E-4,64,40,59,323197,31052,15728,5211,16142,13744,2221,1943,Tag0,unknown
1545003914757,0,-628,-1.3798828125E-4,64,40,59,323197,31052,15728,5211,16142,13744,2221,1943,Tag0,unknown
1545003914757,0,-625,-1.373291015625E-4,64,40,59,323197,31052,15728,5211,16142,13744,2221,1943,Tag0,unknown
1545003914757,0,-611,-1.3425292968749999E-4,64,40,59,323197,31052,15728,5211,16142,13744,2221,1943,Tag0,unknown
1545003914758,0,-599,-1.316162109375E-4,64,40,59,323197,31052,15728,5211,16142,13744,2221,1943,Tag0,unknown
1545003914758,0,-583,-1.281005859375E-4,64,40,59,323197,31052,15728,5211,16142,13744,2221,1943,Tag0,unknown
1545003914758,0,-567,-1.245849609375E-4,64,40,59,323197,31052,15728,5211,16142,13744,2221,1943,Tag0,unknown
1545003914758,0,-557,-1.223876953125E-4,64,40,59,323197,31052,15728,5211,16142,13744,2221,1943,Tag0,unknown
1545003914758,0,-558,-1.22607421875E-4,64,40,59,323197,31052,15728,5211,16142,13744,2221,1943,Tag0,unknown
1545003914758,0,-557,-1.223876953125E-4,64,40,59,323197,31052,15728,5211,16142,13744,2221,1943,Tag0,unknown
1545003914759,0,-553,-1.215087890625E-4,64,40,59,323197,31052,15728,5211,16142,13744,2221,1943,Tag0,unknown
1545003914759,0,-555,-1.219482421875E-4,64,40,59,323197,31052,15728,5211,16142,13744,2221,1943,Tag0,unknown
1545003914759,0,-569,-1.250244140625E-4,64,40,59,323197,31052,15728,5211,16142,13744,2221,1943,Tag0,unknown
1545003914759,0,-565,-1.241455078125E-4,64,40,59,323197,31052,15728,5211,16142,13744,2221,1943,Tag0,unknown
1545003914759,0,-536,-1.1777343750000001E-4,64,40,59,323197,31052,15728,5211,16142,13744,2221,1943,Tag0,unknown
1545003914759,0,-517,-1.135986328125E-4,64,40,59,323197,31052,15728,5211,16142,13744,2221,1943,Tag0,unknown
1545003914759,0,-248,-5.44921875E-5,64,40,59,323197,31052,15728,5211,16142,13744,2221,1943,Tag0,unknown
1545003914760,0,-233,-5.1196289062500006E-5,64,40,59,323197,31052,15728,5211,16142,13744,2221,1943,Tag0,unknown
1545003914760,0,-216,-4.7460937500000004E-5,64,40,59,323197,31052,15728,5211,16142,13744,2221,1943,Tag0,unknown
1545003914760,0,-211,-4.63623046875E-5,64,40,59,323197,31052,15728,5211,16142,13744,2221,1943,Tag0,unknown
1545003914760,0,-219,-4.81201171875E-5,64,40,59,323197,31052,15728,5211,16142,13744,2221,1943,Tag0,unknown
1545003914760,0,-221,-4.85595703125E-5,64,40,59,323197,31052,15728,5211,16142,13744,2221,1943,Tag0,unknown
1545003914804,0,-217,-4.76806640625E-5,64,40,59,323197,31052,15728,5211,16142,13744,2221,1943,Tag0,unknown
1545003914821,0,-216,-4.7460937500000004E-5,64,40,59,323197,31052,15728,5211,16142,13744,2221,1943,Tag0,unknown
1545003914821,0,-206,-4.5263671875E-5,64,40,59,323197,31052,15728,5211,16142,13744,2221,1943,Tag0,unknown
1545003914821,0,-188,-4.1308593750000004E-5,64,40,59,323197,31052,15728,5211,16142,13744,2221,1943,Tag0,unknown
1545003914821,0,-167,-3.6694335937500004E-5,64,40,59,323197,31052,15728,5211,16142,13744,2221,1943,Tag0,unknown
1545003914822,0,-147,-3.22998046875E-5,64,40,59,323197,31052,15728,5211,16142,13744,2221,1943,Tag0,unknown
1545003914822,0,-148,-3.251953125E-5,64,40,59,323197,31052,15728,5211,16142,13744,2221,1943,Tag0,unknown
1545003914822,0,-154,-3.3837890625E-5,64,40,59,323197,31052,15728,5211,16142,13744,2221,1943,Tag0,unknown
1545003914822,0,-137,-3.0102539062499998E-5,64,40,59,323197,31052,15728,5211,16142,13744,2221,1943,Tag0,unknown
1545003914822,0,-369,-8.10791015625E-5,64,40,59,323197,31052,15728,5211,16142,13744,2221,1943,Tag0,unknown
1545003914822,0,-369,-8.10791015625E-5,64,40,59,323197,31052,15728,5211,16142,13744,2221,1943,Tag0,unknown
1545003914823,0,-381,-8.371582031250001E-5,64,40,59,323197,31052,15728,5211,16142,13744,2221,1943,Tag0,unknown
1545003914823,0,-136,-2.9882812500000002E-5,64,40,59,323197,31052,15728,5211,16142,13744,2221,1943,Tag0,unknown
1545003914823,0,-139,-3.0541992187500004E-5,64,40,59,323197,31052,15728,5211,16142,13744,2221,1943,Tag0,unknown
1545003914823,0,-129,-2.8344726562500002E-5,64,40,59,323197,31052,15728,5211,16142,13744,2221,1943,Tag0,unknown
1545003914823,0,-370,-8.1298828125E-5,64,40,59,323197,31052,15728,5211,16142,13744,2221,1943,Tag0,unknown
1545003914823,0,-363,-7.97607421875E-5,64,40,59,323197,31052,15728,5211,16142,13744,2221,1943,Tag0,unknown
1545003914823,0,-363,-7.97607421875E-5,64,40,59,323197,31052,15728,5211,16142,13744,2221,1943,Tag0,unknown
1545003914824,0,-356,-7.822265625E-5,64,40,59,323197,31052,15728,5211,16142,13744,2221,1943,Tag0,unknown
1545003914824,0,-343,-7.53662109375E-5,64,40,59,323197,31052,15728,5211,16142,13744,2221,1943,Tag0,unknown
1545003914824,0,-331,-7.272949218750001E-5,64,40,59,323197,31052,15728,5211,16142,13744,2221,1943,Tag0,unknown
1545003914824,0,-328,-7.207031249999999E-5,64,40,59,323197,31052,15728,5211,16142,13744,2221,1943,Tag0,unknown
1545003914824,0,-337,-7.40478515625E-5,64,40,59,323197,31052,15728,5211,16142,13744,2221,1943,Tag0,unknown
1545003914824,0,-339,-7.448730468750001E-5,64,40,59,323197,31052,15728,5211,16142,13744,2221,1943,Tag0,unknown
1545003914824,0,-328,-7.207031249999999E-5,64,40,59,323197,31052,15728,5211,16142,13744,2221,1943,Tag0,unknown
1545003914825,0,-325,-7.14111328125E-5,64,40,59,323197,31052,15728,5211,16142,13744,2221,1943,Tag0,unknown
1545003914825,0,-341,-7.492675781250002E-5,64,40,59,323197,31052,15728,5211,16142,13744,2221,1943,Tag0,unknown
1545003914825,0,-347,-7.62451171875E-5,64,40,59,323197,31052,15728,5211,16142,13744,2221,1943,Tag0,unknown
1545003914825,0,-329,-7.229003906250001E-5,64,40,59,323197,31052,15728,5211,16142,13744,2221,1943,Tag0,unknown
1545003914825,0,-322,-7.0751953125E-5,64,40,59,323197,31052,15728,5211,16142,13744,2221,1943,Tag0,unknown
1545003914825,0,-323,-7.09716796875E-5,64,40,59,323197,31052,15728,5211,16142,13744,2221,1943,Tag0,unknown
1545003914825,0,-314,-6.8994140625E-5,64,40,59,323197,31052,15728,5211,16142,13744,2221,1943,Tag0,unknown
1545003914826,0,-301,-6.613769531250001E-5,64,40,59,323197,31052,15728,5211,16142,13744,2221,1943,Tag0,unknown
1545003914826,0,-282,-6.1962890625E-5,64,40,59,323197,31052,15728,5211,16142,13744,2221,1943,Tag0,unknown
1545003914869,0,-275,-6.04248046875E-5,64,40,59,323197,31052,15728,5211,16142,13744,2221,1943,Tag0,unknown
1545003914891,0,-262,-5.7568359375E-5,64,40,59,323197,31052,15728,5211,16142,13744,2221,1943,Tag0,unknown
1545003914891,0,18,3.955078125E-6,64,40,59,323197,31052,15728,5211,16142,13744,2221,1943,Tag0,unknown
1545003914892,0,25,5.4931640625E-6,64,40,59,323197,31052,15728,5211,16142,13744,2221,1943,Tag0,unknown
1545003914892,0,22,4.833984375E-6,64,40,59,323197,31052,15728,5211,16142,13744,2221,1943,Tag0,unknown
1545003914892,0,25,5.4931640625E-6,64,40,59,323197,31052,15728,5211,16142,13744,2221,1943,Tag0,unknown
1545003914892,0,39,8.5693359375E-6,64,40,59,323197,31052,15728,5211,16142,13744,2221,1943,Tag0,unknown
1545003914892,0,49,1.07666015625E-5,64,40,59,323197,31052,15728,5211,16142,13744,2221,1943,Tag0,unknown
1545003914893,0,52,1.142578125E-5,64,40,59,323197,31052,15728,5211,16142,13744,2221,1943,Tag0,unknown
1545003914893,0,48,1.0546875E-5,64,40,59,323197,31052,15728,5211,16142,13744,2221,1943,Tag0,unknown
1545003914893,0,38,8.349609375E-6,64,40,59,323197,31052,15728,5211,16142,13744,2221,1943,Tag0,unknown
1545003914893,0,32,7.03125E-6,64,40,59,323197,31052,15728,5211,16142,13744,2221,1943,Tag0,unknown
1545003914893,0,21,4.614257812500001E-6,64,40,59,323197,31052,15728,5211,16142,13744,2221,1943,Tag0,unknown
1545003914893,0,23,5.0537109375E-6,64,40,59,323197,31052,15728,5211,16142,13744,2221,1943,Tag0,unknown
1545003914894,0,52,1.142578125E-5,64,40,59,323197,31052,15728,5211,16142,13744,2221,1943,Tag0,unknown
1545003914894,0,74,1.6259765625E-5,64,40,59,323197,31052,15728,5211,16142,13744,2221,1943,Tag0,unknown
1545003914894,0,57,1.2524414062500001E-5,64,40,59,323197,31052,15728,5211,16142,13744,2221,1943,Tag0,unknown
1545003914894,0,26,5.712890625E-6,64,40,59,323197,31052,15728,5211,16142,13744,2221,1943,Tag0,unknown
1545003914895,0,38,8.349609375E-6,64,40,59,323197,31052,15728,5211,16142,13744,2221,1943,Tag0,unknown
1545003914895,0,74,1.6259765625E-5,64,40,59,323197,31052,15728,5211,16142,13744,2221,1943,Tag0,unknown
1545003914895,0,89,1.95556640625E-5,64,40,59,323197,31052,15728,5211,16142,13744,2221,1943,Tag0,unknown
1545003914895,0,81,1.77978515625E-5,64,40,59,323197,31052,15728,5211,16142,13744,2221,1943,Tag0,unknown
1545003914895,0,71,1.56005859375E-5,64,40,59,323197,31052,15728,5211,16142,13744,2221,1943,Tag0,unknown
1545003914895,0,76,1.669921875E-5,64,40,59,323197,31052,15728,5211,16142,13744,2221,1943,Tag0,unknown
1545003914896,0,83,1.82373046875E-5,64,40,59,323197,31052,15728,5211,16142,13744,2221,1943,Tag0,unknown
1545003914896,0,82,1.8017578124999998E-5,64,40,59,323197,31052,15728,5211,16142,13744,2221,1943,Tag0,unknown
1545003914896,0,83,1.82373046875E-5,64,40,59,323197,31052,15728,5211,16142,13744,2221,1943,Tag0,unknown
1545003914896,0,91,1.99951171875E-5,64,40,59,323197,31052,15728,5211,16142,13744,2221,1943,Tag0,unknown
1545003914896,0,91,1.99951171875E-5,64,40,59,323197,31052,15728,5211,16142,13744,2221,1943,Tag0,unknown
1545003914897,0,93,2.04345703125E-5,64,40,59,323197,31052,15728,5211,16142,13744,2221,1943,Tag0,unknown
1545003914897,0,106,2.3291015625000003E-5,64,40,59,323197,31052,15728,5211,16142,13744,2221,1943,Tag0,unknown
1545003914897,0,119,2.6147460937500004E-5,64,40,59,323197,31052,15728,5211,16142,13744,2221,1943,Tag0,unknown
1545003914897,0,-126,-2.7685546875E-5,64,40,59,323197,31052,15728,5211,16142,13744,2221,1943,Tag0,unknown
1545003914934,0,-117,-2.5708007812499998E-5,64,40,59,323197,31052,15728,5211,16142,13744,2221,1943,Tag0,unknown
1545003914968,0,-110,-2.4169921875E-5,64,40,59,323197,31052,15728,5211,16142,13744,2221,1943,Tag0,unknown
1545003914969,0,-111,-2.43896484375E-5,64,40,59,323197,31052,15728,5211,16142,13744,2221,1943,Tag0,unknown
1545003914969,0,-100,-2.197265625E-5,64,40,59,323197,31052,15728,5211,16142,13744,2221,1943,Tag0,unknown
1545003914969,0,-78,-1.7138671875E-5,64,40,59,323197,31052,15728,5211,16142,13744,2221,1943,Tag0,unknown
1545003914969,0,-69,-1.51611328125E-5,64,40,59,323197,31052,15728,5211,16142,13744,2221,1943,Tag0,unknown
1545003914970,0,-78,-1.7138671875E-5,64,40,59,323197,31052,15728,5211,16142,13744,2221,1943,Tag0,unknown
1545003914970,0,-104,-2.28515625E-5,64,40,59,323197,31052,15728,5211,16142,13744,2221,1943,Tag0,unknown
1545003914970,0,-122,-2.6806640625E-5,64,40,59,323197,31052,15728,5211,16142,13744,2221,1943,Tag0,unknown
1545003914970,0,-124,-2.724609375E-5,64,40,59,323197,31052,15728,5211,16142,13744,2221,1943,Tag0,unknown
1545003914970,0,-124,-2.724609375E-5,64,40,59,323197,31052,15728,5211,16142,13744,2221,1943,Tag0,unknown
1545003914971,0,-122,-2.6806640625E-5,64,40,59,323197,31052,15728,5211,16142,13744,2221,1943,Tag0,unknown
1545003914971,0,-124,-2.724609375E-5,64,40,59,323197,31052,15728,5211,16142,13744,2221,1943,Tag0,unknown
1545003914971,0,116,2.548828125E-5,64,40,59,323197,31052,15728,5211,16142,13744,2221,1943,Tag0,unknown
1545003914971,0,103,2.26318359375E-5,64,40,59,323197,31052,15728,5211,16142,13744,2221,1943,Tag0,unknown
1545003914971,0,97,2.13134765625E-5,64,40,59,323197,31052,15728,5211,16142,13744,2221,1943,Tag0,unknown
1545003914972,0,99,2.1752929687500003E-5,64,40,59,323197,31052,15728,5211,16142,13744,2221,1943,Tag0,unknown
1545003914972,0,105,2.30712890625E-5,64,40,59,323197,31052,15728,5211,16142,13744,2221,1943,Tag0,unknown
1545003914972,0,114,2.5048828125000003E-5,64,40,59,323197,31052,15728,5211,16142,13744,2221,1943,Tag0,unknown
1545003914972,0,117,2.5708007812499998E-5,64,40,59,323197,31052,15728,5211,16142,13744,2221,1943,Tag0,unknown
1545003914972,0,108,2.3730468750000002E-5,64,40,59,323197,31052,15728,5211,16142,13744,2221,1943,Tag0,unknown
1545003914973,0,85,1.86767578125E-5,64,40,59,323197,31052,15728,5211,16142,13744,2221,1943,Tag0,unknown
1545003914973,0,69,1.51611328125E-5,64,40,59,323197,31052,15728,5211,16142,13744,2221,1943,Tag0,unknown
1545003914973,0,73,1.6040039062500002E-5,64,40,59,323197,31052,15728,5211,16142,13744,2221,1943,Tag0,unknown
1545003914973,0,67,1.4721679687500002E-5,64,40,59,323197,31052,15728,5211,16142,13744,2221,1943,Tag0,unknown
1545003914973,0,66,1.4501953125E-5,64,40,59,323197,31052,15728,5211,16142,13744,2221,1943,Tag0,unknown
1545003914973,0,76,1.669921875E-5,64,40,59,323197,31052,15728,5211,16142,13744,2221,1943,Tag0,unknown
1545003914974,0,85,1.86767578125E-5,64,40,59,323197,31052,15728,5211,16142,13744,2221,1943,Tag0,unknown
1545003915003,0,85,1.86767578125E-5,64,40,59,323197,31052,15728,5211,16142,13744,2221,1943,Tag0,unknown
1545003915004,0,80,1.7578125E-5,64,40,59,323197,31052,15728,5211,16142,13744,2221,1943,Tag0,unknown
1545003915004,0,83,1.82373046875E-5,64,40,59,323197,31052,15728,5211,16142,13744,2221,1943,Tag0,unknown
1545003915022,0,96,2.109375E-5,64,40,59,323197,31052,15728,5211,16142,13744,2221,1943,Tag0,unknown
1545003915022,0,99,2.1752929687500003E-5,64,40,59,323197,31052,15728,5211,16142,13744,2221,1943,Tag0,unknown
1545003915023,0,92,2.021484375E-5,64,40,59,323197,31052,15728,5211,16142,13744,2221,1943,Tag0,unknown
1545003915023,0,84,1.8457031250000004E-5,64,40,59,323197,31052,15728,5211,16142,13744,2221,1943,Tag0,unknown
1545003915023,0,69,1.51611328125E-5,64,40,59,323197,31052,15728,5211,16142,13744,2221,1943,Tag0,unknown
1545003915026,0,60,1.318359375E-5,64,40,59,323197,31052,15728,5211,16142,13744,2221,1943,Tag0,unknown
1545003915026,0,64,1.40625E-5,64,40,59,323197,31052,15728,5211,16142,13744,2221,1943,Tag0,unknown
1545003915026,0,73,1.6040039062500002E-5,64,40,59,323197,31052,15728,5211,16142,13744,2221,1943,Tag0,unknown
1545003915027,0,65,1.42822265625E-5,64,40,59,323197,31052,15728,5211,16142,13744,2221,1943,Tag0,unknown
1545003915027,0,53,1.1645507812500002E-5,64,40,59,323197,31052,15728,5211,16142,13744,2221,1943,Tag0,unknown
1545003915027,0,53,1.1645507812500002E-5,64,40,59,323197,31052,15728,5211,16142,13744,2221,1943,Tag0,unknown
1545003915027,0,52,1.142578125E-5,64,40,59,323197,31052,15728,5211,16142,13744,2221,1943,Tag0,unknown
1545003915027,0,50,1.0986328125E-5,64,40,59,323197,31052,15728,5211,16142,13744,2221,1943,Tag0,unknown
1545003915027,0,60,1.318359375E-5,64,40,59,323197,31052,15728,5211,16142,13744,2221,1943,Tag0,unknown
1545003915028,0,80,1.7578125E-5,64,40,59,323197,31052,15728,5211,16142,13744,2221,1943,Tag0,unknown
1545003915028,0,86,1.8896484375000003E-5,64,40,59,323197,31052,15728,5211,16142,13744,2221,1943,Tag0,unknown
1545003915028,0,89,1.95556640625E-5,64,40,59,323197,31052,15728,5211,16142,13744,2221,1943,Tag0,unknown
1545003915028,0,97,2.13134765625E-5,64,40,59,323197,31052,15728,5211,16142,13744,2221,1943,Tag0,unknown
1545003915029,0,91,1.99951171875E-5,64,40,59,323197,31052,15728,5211,16142,13744,2221,1943,Tag0,unknown
1545003915029,0,65,1.42822265625E-5,64,40,59,323197,31052,15728,5211,16142,13744,2221,1943,Tag0,unknown
1545003915029,0,43,9.448242187500001E-6,64,40,59,323197,31052,15728,5211,16142,13744,2221,1943,Tag0,unknown
1545003915029,0,53,1.1645507812500002E-5,64,40,59,323197,31052,15728,5211,16142,13744,2221,1943,Tag0,unknown
1545003915029,0,66,1.4501953125E-5,64,40,59,323197,31052,15728,5211,16142,13744,2221,1943,Tag0,unknown
1545003915030,0,71,1.56005859375E-5,64,40,59,323197,31052,15728,5211,16142,13744,2221,1943,Tag0,unknown
1545003915030,0,70,1.5380859375E-5,64,40,59,323197,31052,15728,5211,16142,13744,2221,1943,Tag0,unknown
1545003915030,0,61,1.34033203125E-5,64,40,59,323197,31052,15728,5211,16142,13744,2221,1943,Tag0,unknown
1545003915030,0,54,1.1865234375000001E-5,64,40,59,323197,31052,15728,5211,16142,13744,2221,1943,Tag0,unknown
1545003915031,0,54,1.1865234375000001E-5,64,40,59,323197,31052,15728,5211,16142,13744,2221,1943,Tag0,unknown
1545003915031,0,65,1.42822265625E-5,64,40,59,323197,31052,15728,5211,16142,13744,2221,1943,Tag0,unknown
1545003915031,0,68,1.4941406250000001E-5,64,40,59,323197,31052,15728,5211,16142,13744,2221,1943,Tag0,unknown
1545003915031,0,64,1.40625E-5,64,40,59,323197,31052,15728,5211,16142,13744,2221,1943,Tag0,unknown
1545003915031,0,54,1.1865234375000001E-5,64,40,59,323197,31052,15728,5211,16142,13744,2221,1943,Tag0,unknown
1545003915031,0,55,1.20849609375E-5,64,40,59,323197,31052,15728,5211,16142,13744,2221,1943,Tag0,unknown
1545003915032,0,56,1.23046875E-5,64,40,59,323197,31052,15728,5211,16142,13744,2221,1943,Tag0,unknown
1545003915032,0,53,1.1645507812500002E-5,64,40,59,323197,31052,15728,5211,16142,13744,2221,1943,Tag0,unknown
1545003915032,0,56,1.23046875E-5,64,40,59,323197,31052,15728,5211,16142,13744,2221,1943,Tag0,unknown
1545003915032,0,71,1.56005859375E-5,64,40,59,323197,31052,15728,5211,16142,13744,2221,1943,Tag0,unknown
1545003915066,0,85,1.86767578125E-5,64,40,59,323197,31052,15728,5211,16142,13744,2221,1943,Tag0,unknown
1545003915072,0,101,2.2192382812500002E-5,64,40,59,323197,31052,15728,5211,16142,13744,2221,1943,Tag0,unknown
1545003915093,0,121,2.6586914062500003E-5,64,40,59,323197,31052,15728,5211,16142,13744,2221,1943,Tag0,unknown
1545003915093,0,-120,-2.63671875E-5,64,40,59,323197,31052,15728,5211,16142,13744,2221,1943,Tag0,unknown
1545003915094,0,-119,-2.6147460937500004E-5,64,40,59,323197,31052,15728,5211,16142,13744,2221,1943,Tag0,unknown
1545003915094,0,-121,-2.6586914062500003E-5,64,40,59,323197,31052,15728,5211,16142,13744,2221,1943,Tag0,unknown
1545003915094,0,-120,-2.63671875E-5,64,40,59,323197,31052,15728,5211,16142,13744,2221,1943,Tag0,unknown
1545003915095,0,-117,-2.5708007812499998E-5,64,40,59,323197,31052,15728,5211,16142,13744,2221,1943,Tag0,unknown
1545003915095,0,-118,-2.5927734375E-5,64,40,59,323197,31052,15728,5211,16142,13744,2221,1943,Tag0,unknown
1545003915095,0,-128,-2.8125E-5,64,40,59,323197,31052,15728,5211,16142,13744,2221,1943,Tag0,unknown
1545003915095,0,101,2.2192382812500002E-5,64,40,59,323197,31052,15728,5211,16142,13744,2221,1943,Tag0,unknown
1545003915095,0,71,1.56005859375E-5,64,40,59,323197,31052,15728,5211,16142,13744,2221,1943,Tag0,unknown
1545003915096,0,54,1.1865234375000001E-5,64,40,59,323197,31052,15728,5211,16142,13744,2221,1943,Tag0,unknown
1545003915096,0,55,1.20849609375E-5,64,40,59,323197,31052,15728,5211,16142,13744,2221,1943,Tag0,unknown
1545003915096,0,61,1.34033203125E-5,64,40,59,323197,31052,15728,5211,16142,13744,2221,1943,Tag0,unknown
1545003915096,0,59,1.29638671875E-5,64,40,59,323197,31052,15728,5211,16142,13744,2221,1943,Tag0,unknown
1545003915096,0,60,1.318359375E-5,64,40,59,323197,31052,15728,5211,16142,13744,2221,1943,Tag0,unknown
1545003915097,0,59,1.29638671875E-5,64,40,59,323197,31052,15728,5211,16142,13744,2221,1943,Tag0,unknown
1545003915097,0,56,1.23046875E-5,64,40,59,323197,31052,15728,5211,16142,13744,2221,1943,Tag0,unknown
1545003915097,0,49,1.07666015625E-5,64,40,59,323197,31052,15728,5211,16142,13744,2221,1943,Tag0,unknown
1545003915097,0,29,6.3720703125E-6,64,40,59,323197,31052,15728,5211,16142,13744,2221,1943,Tag0,unknown
1545003915097,0,27,5.9326171875000005E-6,64,40,59,323197,31052,15728,5211,16142,13744,2221,1943,Tag0,unknown
1545003915098,0,53,1.1645507812500002E-5,64,40,59,323197,31052,15728,5211,16142,13744,2221,1943,Tag0,unknown
1545003915098,0,53,1.1645507812500002E-5,64,40,59,323197,31052,15728,5211,16142,13744,2221,1943,Tag0,unknown
1545003915098,0,43,9.448242187500001E-6,64,40,59,323197,31052,15728,5211,16142,13744,2221,1943,Tag0,unknown
1545003915098,0,49,1.07666015625E-5,64,40,59,323197,31052,15728,5211,16142,13744,2221,1943,Tag0,unknown
1545003915099,0,57,1.2524414062500001E-5,64,40,59,323197,31052,15728,5211,16142,13744,2221,1943,Tag0,unknown
1545003915100,0,58,1.2744140625E-5,64,40,59,323197,31052,15728,5211,16142,13744,2221,1943,Tag0,unknown
1545003915100,0,51,1.1206054687499999E-5,64,40,59,323197,31052,15728,5211,16142,13744,2221,1943,Tag0,unknown
1545003915100,0,43,9.448242187500001E-6,64,40,59,323197,31052,15728,5211,16142,13744,2221,1943,Tag0,unknown
1545003915100,0,48,1.0546875E-5,64,40,59,323197,31052,15728,5211,16142,13744,2221,1943,Tag0,unknown
1545003915100,0,51,1.1206054687499999E-5,64,40,59,323197,31052,15728,5211,16142,13744,2221,1943,Tag0,unknown
1545003915101,0,44,9.66796875E-6,64,40,59,323197,31052,15728,5211,16142,13744,2221,1943,Tag0,unknown
1545003915191,0,39,8.5693359375E-6,64,40,59,323197,31052,15728,5211,16142,13744,2221,1943,Tag0,unknown
1545003915192,0,52,1.142578125E-5,64,40,59,323197,31052,15728,5211,16142,13744,2221,1943,Tag0,unknown
1545003915192,0,82,1.8017578124999998E-5,64,40,59,323197,31052,15728,5211,16142,13744,2221,1943,Tag0,unknown
1545003915192,0,99,2.1752929687500003E-5,64,40,59,323197,31052,15728,5211,16142,13744,2221,1943,Tag0,unknown
1545003915209,0,99,2.1752929687500003E-5,64,40,59,323197,31052,15728,5211,16142,13744,2221,1943,Tag0,unknown
1545003915209,0,92,2.021484375E-5,64,40,59,323197,31052,15728,5211,16142,13744,2221,1943,Tag0,unknown
1545003915209,0,93,2.04345703125E-5,64,40,59,323197,31052,15728,5211,16142,13744,2221,1943,Tag0,unknown
1545003915210,0,105,2.30712890625E-5,64,40,59,323197,31052,15728,5211,16142,13744,2221,1943,Tag0,unknown
1545003915210,0,109,2.39501953125E-5,64,40,59,323197,31052,15728,5211,16142,13744,2221,1943,Tag0,unknown
1545003915210,0,89,1.95556640625E-5,64,40,59,323197,31052,15728,5211,16142,13744,2221,1943,Tag0,unknown
1545003915211,0,70,1.5380859375E-5,64,40,59,323197,31052,15728,5211,16142,13744,2221,1943,Tag0,unknown
1545003915211,0,67,1.4721679687500002E-5,64,40,59,323197,31052,15728,5211,16142,13744,2221,1943,Tag0,unknown
1545003915211,0,66,1.4501953125E-5,64,40,59,323197,31052,15728,5211,16142,13744,2221,1943,Tag0,unknown
1545003915211,0,73,1.6040039062500002E-5,64,40,59,323197,31052,15728,5211,16142,13744,2221,1943,Tag0,unknown
1545003915211,0,74,1.6259765625E-5,64,40,59,323197,31052,15728,5211,16142,13744,2221,1943,Tag0,unknown
1545003915212,0,68,1.4941406250000001E-5,64,40,59,323197,31052,15728,5211,16142,13744,2221,1943,Tag0,unknown
1545003915212,0,64,1.40625E-5,64,40,59,323197,31052,15728,5211,16142,13744,2221,1943,Tag0,unknown
1545003915212,0,71,1.56005859375E-5,64,40,59,323197,31052,15728,5211,16142,13744,2221,1943,Tag0,unknown
1545003915212,0,68,1.4941406250000001E-5,64,40,59,323197,31052,15728,5211,16142,13744,2221,1943,Tag0,unknown
1545003915212,0,49,1.07666015625E-5,64,40,59,323197,31052,15728,5211,16142,13744,2221,1943,Tag0,unknown
1545003915212,0,26,5.712890625E-6,64,40,59,323197,31052,15728,5211,16142,13744,2221,1943,Tag0,unknown
1545003915213,0,21,4.614257812500001E-6,64,40,59,323197,31052,15728,5211,16142,13744,2221,1943,Tag0,unknown
1545003915213,0,35,7.6904296875E-6,64,40,59,323197,31052,15728,5211,16142,13744,2221,1943,Tag0,unknown
1545003915213,0,36,7.91015625E-6,64,40,59,323197,31052,15728,5211,16142,13744,2221,1943,Tag0,unknown
1545003915213,0,35,7.6904296875E-6,64,40,59,323197,31052,15728,5211,16142,13744,2221,1943,Tag0,unknown
1545003915214,0,36,7.91015625E-6,64,40,59,323197,31052,15728,5211,16142,13744,2221,1943,Tag0,unknown
1545003915214,0,37,8.1298828125E-6,64,40,59,323197,31052,15728,5211,16142,13744,2221,1943,Tag0,unknown
1545003915214,0,37,8.1298828125E-6,64,40,59,323197,31052,15728,5211,16142,13744,2221,1943,Tag0,unknown
1545003915215,0,41,9.008789062499999E-6,64,40,59,323197,31052,15728,5211,16142,13744,2221,1943,Tag0,unknown
1545003915215,0,49,1.07666015625E-5,64,40,59,323197,31052,15728,5211,16142,13744,2221,1943,Tag0,unknown
1545003915215,0,67,1.4721679687500002E-5,64,40,59,323197,31052,15728,5211,16142,13744,2221,1943,Tag0,unknown
1545003915215,0,72,1.58203125E-5,64,40,59,323197,31052,15728,5211,16142,13744,2221,1943,Tag0,unknown
1545003915215,0,61,1.34033203125E-5,64,40,59,323197,31052,15728,5211,16142,13744,2221,1943,Tag0,unknown
1545003915216,0,52,1.142578125E-5,64,40,59,323197,31052,15728,5211,16142,13744,2221,1943,Tag0,unknown
1545003915225,0,57,1.2524414062500001E-5,64,40,59,323197,31052,15728,5211,16142,13744,2221,1943,Tag0,unknown
1545003915225,0,69,1.51611328125E-5,64,40,59,323197,31052,15728,5211,16142,13744,2221,1943,Tag0,unknown
1545003915225,0,70,1.5380859375E-5,64,40,59,323197,31052,15728,5211,16142,13744,2221,1943,Tag0,unknown
1545003915226,0,58,1.2744140625E-5,64,40,59,323197,31052,15728,5211,16142,13744,2221,1943,Tag0,unknown
1545003915226,0,43,9.448242187500001E-6,64,40,59,323197,31052,15728,5211,16142,13744,2221,1943,Tag0,unknown
1545003915226,0,41,9.008789062499999E-6,64,40,59,323197,31052,15728,5211,16142,13744,2221,1943,Tag0,unknown
1545003915226,0,38,8.349609375E-6,64,40,59,323197,31052,15728,5211,16142,13744,2221,1943,Tag0,unknown
1545003915227,0,29,6.3720703125E-6,64,40,59,323197,31052,15728,5211,16142,13744,2221,1943,Tag0,unknown
1545003915227,0,32,7.03125E-6,64,40,59,323197,31052,15728,5211,16142,13744,2221,1943,Tag0,unknown
1545003915227,0,35,7.6904296875E-6,64,40,59,323197,31052,15728,5211,16142,13744,2221,1943,Tag0,unknown
1545003915227,0,33,7.2509765625E-6,64,40,59,323197,31052,15728,5211,16142,13744,2221,1943,Tag0,unknown
1545003915227,0,28,6.15234375E-6,64,40,59,323197,31052,15728,5211,16142,13744,2221,1943,Tag0,unknown
1545003915227,0,26,5.712890625E-6,64,40,59,323197,31052,15728,5211,16142,13744,2221,1943,Tag0,unknown
1545003915228,0,29,6.3720703125E-6,64,40,59,323197,31052,15728,5211,16142,13744,2221,1943,Tag0,unknown
1545003915228,0,33,7.2509765625E-6,64,40,59,323197,31052,15728,5211,16142,13744,2221,1943,Tag0,unknown
1545003915231,0,36,7.91015625E-6,64,40,59,323197,31052,15728,5211,16142,13744,2221,1943,Tag0,unknown
1545003915231,0,44,9.66796875E-6,64,40,59,323197,31052,15728,5211,16142,13744,2221,1943,Tag0,unknown
1545003915231,0,55,1.20849609375E-5,64,40,59,323197,31052,15728,5211,16142,13744,2221,1943,Tag0,unknown
1545003915231,0,59,1.29638671875E-5,64,40,59,323197,31052,15728,5211,16142,13744,2221,1943,Tag0,unknown
1545003915231,0,51,1.1206054687499999E-5,64,40,59,323197,31052,15728,5211,16142,13744,2221,1943,Tag0,unknown
1545003915232,0,40,8.7890625E-6,64,40,59,323197,31052,15728,5211,16142,13744,2221,1943,Tag0,unknown
1545003915232,0,43,9.448242187500001E-6,64,40,59,323197,31052,15728,5211,16142,13744,2221,1943,Tag0,unknown
1545003915232,0,57,1.2524414062500001E-5,64,40,59,323197,31052,15728,5211,16142,13744,2221,1943,Tag0,unknown
1545003915232,0,60,1.318359375E-5,64,40,59,323197,31052,15728,5211,16142,13744,2221,1943,Tag0,unknown
1545003915232,0,54,1.1865234375000001E-5,64,40,59,323197,31052,15728,5211,16142,13744,2221,1943,Tag0,unknown
1545003915233,0,55,1.20849609375E-5,64,40,59,323197,31052,15728,5211,16142,13744,2221,1943,Tag0,unknown
1545003915233,0,73,1.6040039062500002E-5,64,40,59,323197,31052,15728,5211,16142,13744,2221,1943,Tag0,unknown
1545003915233,0,96,2.109375E-5,64,40,59,323197,31052,15728,5211,16142,13744,2221,1943,Tag0,unknown
1545003915238,0,104,2.28515625E-5,64,40,59,323197,31052,15728,5211,16142,13744,2221,1943,Tag0,unknown
1545003915238,0,103,2.26318359375E-5,64,40,59,323197,31052,15728,5211,16142,13744,2221,1943,Tag0,unknown
1545003915238,0,93,2.04345703125E-5,64,40,59,323197,31052,15728,5211,16142,13744,2221,1943,Tag0,unknown
1545003915255,0,93,2.04345703125E-5,64,40,59,323197,31052,15728,5211,16142,13744,2221,1943,Tag0,unknown
1545003915255,0,98,2.1533203125E-5,64,40,59,323197,31052,15728,5211,16142,13744,2221,1943,Tag0,unknown
1545003915255,0,101,2.2192382812500002E-5,64,40,59,323197,31052,15728,5211,16142,13744,2221,1943,Tag0,unknown
1545003915256,0,101,2.2192382812500002E-5,64,40,59,323197,31052,15728,5211,16142,13744,2221,1943,Tag0,unknown
1545003915256,0,91,1.99951171875E-5,64,40,59,323197,31052,15728,5211,16142,13744,2221,1943,Tag0,unknown
1545003915256,0,90,1.9775390625E-5,64,40,59,323197,31052,15728,5211,16142,13744,2221,1943,Tag0,unknown
1545003915256,0,82,1.8017578124999998E-5,64,40,59,323197,31052,15728,5211,16142,13744,2221,1943,Tag0,unknown
1545003915256,0,66,1.4501953125E-5,64,40,59,323197,31052,15728,5211,16142,13744,2221,1943,Tag0,unknown
1545003915257,0,66,1.4501953125E-5,64,40,59,323197,31052,15728,5211,16142,13744,2221,1943,Tag0,unknown
1545003915257,0,68,1.4941406250000001E-5,64,40,59,323197,31052,15728,5211,16142,13744,2221,1943,Tag0,unknown
1545003915257,0,59,1.29638671875E-5,64,40,59,323197,31052,15728,5211,16142,13744,2221,1943,Tag0,unknown
1545003915271,0,57,1.2524414062500001E-5,64,40,59,323197,31052,15728,5211,16142,13744,2221,1943,Tag0,unknown
1545003915274,0,54,1.1865234375000001E-5,64,40,59,323197,31052,15728,5211,16142,13744,2221,1943,Tag0,unknown
1545003915275,0,45,9.8876953125E-6,64,40,59,323197,31052,15728,5211,16142,13744,2221,1943,Tag0,unknown
1545003915275,0,36,7.91015625E-6,64,40,59,323197,31052,15728,5211,16142,13744,2221,1943,Tag0,unknown
1545003915275,0,43,9.448242187500001E-6,64,40,59,323197,31052,15728,5211,16142,13744,2221,1943,Tag0,unknown
1545003915275,0,71,1.56005859375E-5,64,40,59,323197,31052,15728,5211,16142,13744,2221,1943,Tag0,unknown
1545003915275,0,90,1.9775390625E-5,64,40,59,323197,31052,15728,5211,16142,13744,2221,1943,Tag0,unknown
1545003915276,0,91,1.99951171875E-5,64,40,59,323197,31052,15728,5211,16142,13744,2221,1943,Tag0,unknown
1545003915276,0,82,1.8017578124999998E-5,64,40,59,323197,31052,15728,5211,16142,13744,2221,1943,Tag0,unknown
1545003915276,0,84,1.8457031250000004E-5,64,40,59,323197,31052,15728,5211,16142,13744,2221,1943,Tag0,unknown
1545003915276,0,97,2.13134765625E-5,64,40,59,323197,31052,15728,5211,16142,13744,2221,1943,Tag0,unknown
1545003915276,0,102,2.2412109374999998E-5,64,40,59,323197,31052,15728,5211,16142,13744,2221,1943,Tag0,unknown
1545003915277,0,105,2.30712890625E-5,64,40,59,323197,31052,15728,5211,16142,13744,2221,1943,Tag0,unknown
1545003915277,0,105,2.30712890625E-5,64,40,59,323197,31052,15728,5211,16142,13744,2221,1943,Tag0,unknown
1545003915277,0,103,2.26318359375E-5,64,40,59,323197,31052,15728,5211,16142,13744,2221,1943,Tag0,unknown
1545003915277,0,93,2.04345703125E-5,64,40,59,323197,31052,15728,5211,16142,13744,2221,1943,Tag0,unknown
1545003915278,0,93,2.04345703125E-5,64,40,59,323197,31052,15728,5211,16142,13744,2221,1943,Tag0,unknown
1545003915278,0,104,2.28515625E-5,64,40,59,323197,31052,15728,5211,16142,13744,2221,1943,Tag0,unknown
1545003915278,0,102,2.2412109374999998E-5,64,40,59,323197,31052,15728,5211,16142,13744,2221,1943,Tag0,unknown
1545003915278,0,81,1.77978515625E-5,64,40,59,323197,31052,15728,5211,16142,13744,2221,1943,Tag0,unknown
1545003915278,0,76,1.669921875E-5,64,40,59,323197,31052,15728,5211,16142,13744,2221,1943,Tag0,unknown
1545003915279,0,106,2.3291015625000003E-5,64,40,59,323197,31052,15728,5211,16142,13744,2221,1943,Tag0,unknown
1545003915279,0,-121,-2.6586914062500003E-5,64,40,59,323197,31052,15728,5211,16142,13744,2221,1943,Tag0,unknown
1545003915288,0,-116,-2.548828125E-5,64,40,59,323197,31052,15728,5211,16142,13744,2221,1943,Tag0,unknown
1545003915288,0,-123,-2.70263671875E-5,64,40,59,323197,31052,15728,5211,16142,13744,2221,1943,Tag0,unknown
1545003915289,0,125,2.74658203125E-5,64,40,59,323197,31052,15728,5211,16142,13744,2221,1943,Tag0,unknown
1545003915289,0,-127,-2.79052734375E-5,64,40,59,323197,31052,15728,5211,16142,13744,2221,1943,Tag0,unknown
1545003915290,0,-128,-2.8125E-5,64,40,59,323197,31052,15728,5211,16142,13744,2221,1943,Tag0,unknown
1545003915290,0,123,2.70263671875E-5,64,40,59,323197,31052,15728,5211,16142,13744,2221,1943,Tag0,unknown
1545003915291,0,-128,-2.8125E-5,64,40,59,323197,31052,15728,5211,16142,13744,2221,1943,Tag0,unknown
1545003915305,0,-128,-2.8125E-5,64,40,59,323197,31052,15728,5211,16142,13744,2221,1943,Tag0,unknown
1545003915306,0,-125,-2.74658203125E-5,64,40,59,323197,31052,15728,5211,16142,13744,2221,1943,Tag0,unknown
1545003915306,0,-116,-2.548828125E-5,64,40,59,323197,31052,15728,5211,16142,13744,2221,1943,Tag0,unknown
1545003915307,0,-106,-2.3291015625000003E-5,64,40,59,323197,31052,15728,5211,16142,13744,2221,1943,Tag0,unknown
1545003915307,0,-103,-2.26318359375E-5,64,40,59,323197,31052,15728,5211,16142,13744,2221,1943,Tag0,unknown
1545003915307,0,-94,-2.0654296875000002E-5,64,40,59,323197,31052,15728,5211,16142,13744,2221,1943,Tag0,unknown
1545003915307,0,-101,-2.2192382812500002E-5,64,40,59,323197,31052,15728,5211,16142,13744,2221,1943,Tag0,unknown
1545003915307,0,-106,-2.3291015625000003E-5,64,40,59,323197,31052,15728,5211,16142,13744,2221,1943,Tag0,unknown
1545003915308,0,-107,-2.35107421875E-5,64,40,59,323197,31052,15728,5211,16142,13744,2221,1943,Tag0,unknown
1545003915308,0,-115,-2.52685546875E-5,64,40,59,323197,31052,15728,5211,16142,13744,2221,1943,Tag0,unknown
1545003915371,0,-127,-2.79052734375E-5,64,40,59,323197,31052,15728,5211,16142,13744,2221,1943,Tag0,unknown
1545003915389,0,122,2.6806640625E-5,64,40,59,323197,31052,15728,5211,16142,13744,2221,1943,Tag0,unknown
1545003915439,0,-128,-2.8125E-5,64,40,59,323197,31052,15728,5211,16142,13744,2221,1943,Tag0,unknown
1545003915475,0,-121,-2.6586914062500003E-5,64,40,59,323197,31052,15728,5211,16142,13744,2221,1943,Tag0,unknown
1545003915490,0,-106,-2.3291015625000003E-5,64,40,59,323197,31052,15728,5211,16142,13744,2221,1943,Tag0,unknown
1545003915490,0,-109,-2.39501953125E-5,64,40,59,323197,31052,15728,5211,16142,13744,2221,1943,Tag0,unknown
1545003915490,0,119,2.6147460937500004E-5,64,40,59,323197,31052,15728,5211,16142,13744,2221,1943,Tag0,unknown
1545003915491,0,89,1.95556640625E-5,64,40,59,323197,31052,15728,5211,16142,13744,2221,1943,Tag0,unknown
1545003915491,0,85,1.86767578125E-5,64,40,59,323197,31052,15728,5211,16142,13744,2221,1943,Tag0,unknown
1545003915491,0,87,1.91162109375E-5,64,40,59,323197,31052,15728,5211,16142,13744,2221,1943,Tag0,unknown
1545003915491,0,76,1.669921875E-5,64,40,59,323197,31052,15728,5211,16142,13744,2221,1943,Tag0,unknown
1545003915491,0,65,1.42822265625E-5,64,40,59,323197,31052,15728,5211,16142,13744,2221,1943,Tag0,unknown
1545003915492,0,59,1.29638671875E-5,64,40,59,323197,31052,15728,5211,16142,13744,2221,1943,Tag0,unknown
1545003915492,0,59,1.29638671875E-5,64,40,59,323197,31052,15728,5211,16142,13744,2221,1943,Tag0,unknown
1545003915492,0,52,1.142578125E-5,64,40,59,323197,31052,15728,5211,16142,13744,2221,1943,Tag0,unknown
1545003915492,0,39,8.5693359375E-6,64,40,59,323197,31052,15728,5211,16142,13744,2221,1943,Tag0,unknown
1545003915492,0,35,7.6904296875E-6,64,40,59,323197,31052,15728,5211,16142,13744,2221,1943,Tag0,unknown
1545003915493,0,43,9.448242187500001E-6,64,40,59,323197,31052,15728,5211,16142,13744,2221,1943,Tag0,unknown
1545003915493,0,52,1.142578125E-5,64,40,59,323197,31052,15728,5211,16142,13744,2221,1943,Tag0,unknown
1545003915493,0,51,1.1206054687499999E-5,64,40,59,323197,31052,15728,5211,16142,13744,2221,1943,Tag0,unknown
1545003915493,0,52,1.142578125E-5,64,40,59,323197,31052,15728,5211,16142,13744,2221,1943,Tag0,unknown
1545003915493,0,53,1.1645507812500002E-5,64,40,59,323197,31052,15728,5211,16142,13744,2221,1943,Tag0,unknown
1545003915493,0,48,1.0546875E-5,64,40,59,323197,31052,15728,5211,16142,13744,2221,1943,Tag0,unknown
1545003915494,0,26,5.712890625E-6,64,40,59,323197,31052,15728,5211,16142,13744,2221,1943,Tag0,unknown
1545003915494,0,12,2.63671875E-6,64,40,59,323197,31052,15728,5211,16142,13744,2221,1943,Tag0,unknown
1545003915494,0,17,3.7353515625000003E-6,64,40,59,323197,31052,15728,5211,16142,13744,2221,1943,Tag0,unknown
1545003915494,0,24,5.2734375E-6,64,40,59,323197,31052,15728,5211,16142,13744,2221,1943,Tag0,unknown
1545003915495,0,22,4.833984375E-6,64,40,59,323197,31052,15728,5211,16142,13744,2221,1943,Tag0,unknown
1545003915495,0,17,3.7353515625000003E-6,64,40,59,323197,31052,15728,5211,16142,13744,2221,1943,Tag0,unknown
1545003915495,0,21,4.614257812500001E-6,64,40,59,323197,31052,15728,5211,16142,13744,2221,1943,Tag0,unknown
1545003915495,0,24,5.2734375E-6,64,40,59,323197,31052,15728,5211,16142,13744,2221,1943,Tag0,unknown
1545003915495,0,19,4.1748046875E-6,64,40,59,323197,31052,15728,5211,16142,13744,2221,1943,Tag0,unknown
1545003915495,0,13,2.8564453125E-6,64,40,59,323197,31052,15728,5211,16142,13744,2221,1943,Tag0,unknown
1545003915496,0,3,6.591796875E-7,64,40,59,323197,31052,15728,5211,16142,13744,2221,1943,Tag0,unknown
1545003915496,0,-283,-6.218261718750001E-5,64,40,59,323197,31052,15728,5211,16142,13744,2221,1943,Tag0,unknown
1545003915496,0,-291,-6.39404296875E-5,64,40,59,323197,31052,15728,5211,16142,13744,2221,1943,Tag0,unknown
1545003915496,0,-269,-5.9106445312499996E-5,64,40,59,323197,31052,15728,5211,16142,13744,2221,1943,Tag0,unknown
1545003915496,0,1,2.197265625E-7,64,40,59,323197,31052,15728,5211,16142,13744,2221,1943,Tag0,unknown
1545003915497,0,7,1.5380859375E-6,64,40,59,323197,31052,15728,5211,16142,13744,2221,1943,Tag0,unknown
1545003915497,0,3,6.591796875E-7,64,40,59,323197,31052,15728,5211,16142,13744,2221,1943,Tag0,unknown
1545003915497,0,-262,-5.7568359375E-5,64,40,59,323197,31052,15728,5211,16142,13744,2221,1943,Tag0,unknown
1545003915497,0,-259,-5.69091796875E-5,64,40,59,323197,31052,15728,5211,16142,13744,2221,1943,Tag0,unknown
1545003915497,0,6,1.318359375E-6,64,40,59,323197,31052,15728,5211,16142,13744,2221,1943,Tag0,unknown
1545003915498,0,16,3.515625E-6,64,40,59,323197,31052,15728,5211,16142,13744,2221,1943,Tag0,unknown
1545003915498,0,12,2.63671875E-6,64,40,59,323197,31052,15728,5211,16142,13744,2221,1943,Tag0,unknown
1545003915498,0,13,2.8564453125E-6,64,40,59,323197,31052,15728,5211,16142,13744,2221,1943,Tag0,unknown
1545003915498,0,13,2.8564453125E-6,64,40,59,323197,31052,15728,5211,16142,13744,2221,1943,Tag0,unknown
1545003915498,0,4,8.7890625E-7,64,40,59,323197,31052,15728,5211,16142,13744,2221,1943,Tag0,unknown
1545003915499,0,-262,-5.7568359375E-5,64,40,59,323197,31052,15728,5211,16142,13744,2221,1943,Tag0,unknown
1545003915499,0,-277,-6.0864257812500005E-5,64,40,59,323197,31052,15728,5211,16142,13744,2221,1943,Tag0,unknown
1545003915499,0,-278,-6.108398437500001E-5,64,40,59,323197,31052,15728,5211,16142,13744,2221,1943,Tag0,unknown
1545003915499,0,-276,-6.064453125E-5,64,40,59,323197,31052,15728,5211,16142,13744,2221,1943,Tag0,unknown
1545003915499,0,-278,-6.108398437500001E-5,64,40,59,323197,31052,15728,5211,16142,13744,2221,1943,Tag0,unknown
1545003915500,0,-279,-6.13037109375E-5,64,40,59,323197,31052,15728,5211,16142,13744,2221,1943,Tag0,unknown
1545003915500,0,-290,-6.3720703125E-5,64,40,59,323197,31052,15728,5211,16142,13744,2221,1943,Tag0,unknown
1545003915500,0,-290,-6.3720703125E-5,64,40,59,323197,31052,15728,5211,16142,13744,2221,1943,Tag0,unknown
1545003915500,0,-283,-6.218261718750001E-5,64,40,59,323197,31052,15728,5211,16142,13744,2221,1943,Tag0,unknown
1545003915501,0,-281,-6.17431640625E-5,64,40,59,323197,31052,15728,5211,16142,13744,2221,1943,Tag0,unknown
1545003915501,0,-274,-6.0205078124999997E-5,64,40,59,323197,31052,15728,5211,16142,13744,2221,1943,Tag0,unknown
1545003915502,0,-269,-5.9106445312499996E-5,64,40,59,323197,31052,15728,5211,16142,13744,2221,1943,Tag0,unknown
1545003915502,0,-268,-5.8886718750000006E-5,64,40,59,323197,31052,15728,5211,16142,13744,2221,1943,Tag0,unknown
1545003915502,0,-263,-5.7788085937500005E-5,64,40,59,323197,31052,15728,5211,16142,13744,2221,1943,Tag0,unknown
1545003915506,0,4,8.7890625E-7,38,44,59,16746415,36994,2061,7670,4669,2358,1159,759,Tag0,unknown
1545003915506,0,13,2.8564453125E-6,38,44,59,16746415,36994,2061,7670,4669,2358,1159,759,Tag0,unknown
1545003915506,0,12,2.63671875E-6,38,44,59,16746415,36994,2061,7670,4669,2358,1159,759,Tag0,unknown
1545003915507,0,18,3.955078125E-6,38,44,59,16746415,36994,2061,7670,4669,2358,1159,759,Tag0,unknown
1545003915507,0,9,1.9775390625E-6,38,44,59,16746415,36994,2061,7670,4669,2358,1159,759,Tag0,unknown
1545003915508,0,-260,-5.712890625E-5,38,44,59,16746415,36994,2061,7670,4669,2358,1159,759,Tag0,unknown
1545003915508,0,-266,-5.8447265625E-5,38,44,59,16746415,36994,2061,7670,4669,2358,1159,759,Tag0,unknown
1545003915508,0,-275,-6.04248046875E-5,38,44,59,16746415,36994,2061,7670,4669,2358,1159,759,Tag0,unknown
1545003915508,0,-277,-6.0864257812500005E-5,38,44,59,16746415,36994,2061,7670,4669,2358,1159,759,Tag0,unknown
1545003915511,0,-268,-5.8886718750000006E-5,38,44,59,16746415,36994,2061,7670,4669,2358,1159,759,Tag0,unknown
1545003915512,0,-259,-5.69091796875E-5,38,44,59,16746415,36994,2061,7670,4669,2358,1159,759,Tag0,unknown
1545003915512,0,-261,-5.73486328125E-5,38,44,59,16746415,36994,2061,7670,4669,2358,1159,759,Tag0,unknown
1545003915512,0,-262,-5.7568359375E-5,38,44,59,16746415,36994,2061,7670,4669,2358,1159,759,Tag0,unknown
1545003915512,0,4,8.7890625E-7,38,44,59,16746415,36994,2061,7670,4669,2358,1159,759,Tag0,unknown
1545003915513,0,11,2.4169921875E-6,38,44,59,16746415,36994,2061,7670,4669,2358,1159,759,Tag0,unknown
1545003915513,0,5,1.0986328125E-6,38,44,59,16746415,36994,2061,7670,4669,2358,1159,759,Tag0,unknown
1545003915513,0,3,6.591796875E-7,38,44,59,16746415,36994,2061,7670,4669,2358,1159,759,Tag0,unknown
1545003915513,0,19,4.1748046875E-6,38,44,59,16746415,36994,2061,7670,4669,2358,1159,759,Tag0,unknown
1545003915513,0,41,9.008789062499999E-6,38,44,59,16746415,36994,2061,7670,4669,2358,1159,759,Tag0,unknown
1545003915514,0,44,9.66796875E-6,38,44,59,16746415,36994,2061,7670,4669,2358,1159,759,Tag0,unknown
1545003915514,0,23,5.0537109375E-6,38,44,59,16746415,36994,2061,7670,4669,2358,1159,759,Tag0,unknown
1545003915514,0,7,1.5380859375E-6,38,44,59,16746415,36994,2061,7670,4669,2358,1159,759,Tag0,unknown
1545003915514,0,16,3.515625E-6,38,44,59,16746415,36994,2061,7670,4669,2358,1159,759,Tag0,unknown
1545003915514,0,18,3.955078125E-6,38,44,59,16746415,36994,2061,7670,4669,2358,1159,759,Tag0,unknown
1545003915515,0,20,4.39453125E-6,38,44,59,16746415,36994,2061,7670,4669,2358,1159,759,Tag0,unknown
1545003915515,0,19,4.1748046875E-6,38,44,59,16746415,36994,2061,7670,4669,2358,1159,759,Tag0,unknown
1545003915519,0,4,8.7890625E-7,38,44,59,16746415,36994,2061,7670,4669,2358,1159,759,Tag0,unknown
1545003915519,0,-262,-5.7568359375E-5,38,44,59,16746415,36994,2061,7670,4669,2358,1159,759,Tag0,unknown
1545003915519,0,-260,-5.712890625E-5,38,44,59,16746415,36994,2061,7670,4669,2358,1159,759,Tag0,unknown
1545003915520,0,5,1.0986328125E-6,38,44,59,16746415,36994,2061,7670,4669,2358,1159,759,Tag0,unknown
1545003915520,0,22,4.833984375E-6,38,44,59,16746415,36994,2061,7670,4669,2358,1159,759,Tag0,unknown
1545003915520,0,43,9.448242187500001E-6,38,44,59,16746415,36994,2061,7670,4669,2358,1159,759,Tag0,unknown
1545003915520,0,55,1.20849609375E-5,38,44,59,16746415,36994,2061,7670,4669,2358,1159,759,Tag0,unknown
1545003915520,0,49,1.07666015625E-5,38,44,59,16746415,36994,2061,7670,4669,2358,1159,759,Tag0,unknown
1545003915520,0,36,7.91015625E-6,38,44,59,16746415,36994,2061,7670,4669,2358,1159,759,Tag0,unknown
1545003915521,0,28,6.15234375E-6,38,44,59,16746415,36994,2061,7670,4669,2358,1159,759,Tag0,unknown
1545003915521,0,18,3.955078125E-6,38,44,59,16746415,36994,2061,7670,4669,2358,1159,759,Tag0,unknown
1545003915521,0,6,1.318359375E-6,38,44,59,16746415,36994,2061,7670,4669,2358,1159,759,Tag0,unknown
1545003915521,0,17,3.7353515625000003E-6,38,44,59,16746415,36994,2061,7670,4669,2358,1159,759,Tag0,unknown
1545003915522,0,36,7.91015625E-6,38,44,59,16746415,36994,2061,7670,4669,2358,1159,759,Tag0,unknown
1545003915522,0,54,1.1865234375000001E-5,38,44,59,16746415,36994,2061,7670,4669,2358,1159,759,Tag0,unknown
1545003915522,0,64,1.40625E-5,38,44,59,16746415,36994,2061,7670,4669,2358,1159,759,Tag0,unknown
1545003915522,0,57,1.2524414062500001E-5,38,44,59,16746415,36994,2061,7670,4669,2358,1159,759,Tag0,unknown
1545003915523,0,49,1.07666015625E-5,38,44,59,16746415,36994,2061,7670,4669,2358,1159,759,Tag0,unknown
1545003915523,0,50,1.0986328125E-5,38,44,59,16746415,36994,2061,7670,4669,2358,1159,759,Tag0,unknown
1545003915523,0,64,1.40625E-5,38,44,59,16746415,36994,2061,7670,4669,2358,1159,759,Tag0,unknown
1545003915523,0,70,1.5380859375E-5,38,44,59,16746415,36994,2061,7670,4669,2358,1159,759,Tag0,unknown
1545003915538,0,72,1.58203125E-5,38,44,59,16746415,36994,2061,7670,4669,2358,1159,759,Tag0,unknown
1545003915538,0,74,1.6259765625E-5,38,44,59,16746415,36994,2061,7670,4669,2358,1159,759,Tag0,unknown
1545003915539,0,74,1.6259765625E-5,38,44,59,16746415,36994,2061,7670,4669,2358,1159,759,Tag0,unknown
1545003915539,0,82,1.8017578124999998E-5,38,44,59,16746415,36994,2061,7670,4669,2358,1159,759,Tag0,unknown
1545003915540,0,92,2.021484375E-5,38,44,59,16746415,36994,2061,7670,4669,2358,1159,759,Tag0,unknown
1545003915540,0,97,2.13134765625E-5,38,44,59,16746415,36994,2061,7670,4669,2358,1159,759,Tag0,unknown
1545003915540,0,92,2.021484375E-5,38,44,59,16746415,36994,2061,7670,4669,2358,1159,759,Tag0,unknown
1545003915543,0,87,1.91162109375E-5,38,44,59,16746415,36994,2061,7670,4669,2358,1159,759,Tag0,unknown
1545003915543,0,84,1.8457031250000004E-5,38,44,59,16746415,36994,2061,7670,4669,2358,1159,759,Tag0,unknown
1545003915544,0,81,1.77978515625E-5,38,44,59,16746415,36994,2061,7670,4669,2358,1159,759,Tag0,unknown
1545003915555,0,82,1.8017578124999998E-5,38,44,59,16746415,36994,2061,7670,4669,2358,1159,759,Tag0,unknown
1545003915555,0,85,1.86767578125E-5,38,44,59,16746415,36994,2061,7670,4669,2358,1159,759,Tag0,unknown
1545003915556,0,91,1.99951171875E-5,38,44,59,16746415,36994,2061,7670,4669,2358,1159,759,Tag0,unknown
1545003915556,0,101,2.2192382812500002E-5,38,44,59,16746415,36994,2061,7670,4669,2358,1159,759,Tag0,unknown
1545003915556,0,116,2.548828125E-5,38,44,59,16746415,36994,2061,7670,4669,2358,1159,759,Tag0,unknown
1545003915557,0,-126,-2.7685546875E-5,38,44,59,16746415,36994,2061,7670,4669,2358,1159,759,Tag0,unknown
1545003915557,0,122,2.6806640625E-5,38,44,59,16746415,36994,2061,7670,4669,2358,1159,759,Tag0,unknown
1545003915557,0,114,2.5048828125000003E-5,38,44,59,16746415,36994,2061,7670,4669,2358,1159,759,Tag0,unknown
1545003915571,0,114,2.5048828125000003E-5,38,44,59,16746415,36994,2061,7670,4669,2358,1159,759,Tag0,unknown
1545003915571,0,104,2.28515625E-5,38,44,59,16746415,36994,2061,7670,4669,2358,1159,759,Tag0,unknown
1545003915572,0,101,2.2192382812500002E-5,38,44,59,16746415,36994,2061,7670,4669,2358,1159,759,Tag0,unknown
1545003915572,0,115,2.52685546875E-5,38,44,59,16746415,36994,2061,7670,4669,2358,1159,759,Tag0,unknown
1545003915588,0,117,2.5708007812499998E-5,38,44,59,16746415,36994,2061,7670,4669,2358,1159,759,Tag0,unknown
1545003915589,0,113,2.48291015625E-5,38,44,59,16746415,36994,2061,7670,4669,2358,1159,759,Tag0,unknown
1545003915589,0,107,2.35107421875E-5,38,44,59,16746415,36994,2061,7670,4669,2358,1159,759,Tag0,unknown
1545003915590,0,102,2.2412109374999998E-5,38,44,59,16746415,36994,2061,7670,4669,2358,1159,759,Tag0,unknown
1545003915590,0,99,2.1752929687500003E-5,38,44,59,16746415,36994,2061,7670,4669,2358,1159,759,Tag0,unknown
1545003915590,0,101,2.2192382812500002E-5,38,44,59,16746415,36994,2061,7670,4669,2358,1159,759,Tag0,unknown
1545003915590,0,106,2.3291015625000003E-5,38,44,59,16746415,36994,2061,7670,4669,2358,1159,759,Tag0,unknown
1545003915590,0,106,2.3291015625000003E-5,38,44,59,16746415,36994,2061,7670,4669,2358,1159,759,Tag0,unknown
1545003915591,0,107,2.35107421875E-5,38,44,59,16746415,36994,2061,7670,4669,2358,1159,759,Tag0,unknown
1545003915591,0,101,2.2192382812500002E-5,38,44,59,16746415,36994,2061,7670,4669,2358,1159,759,Tag0,unknown
1545003915593,0,85,1.86767578125E-5,38,44,59,16746415,36994,2061,7670,4669,2358,1159,759,Tag0,unknown
1545003915593,0,85,1.86767578125E-5,38,44,59,16746415,36994,2061,7670,4669,2358,1159,759,Tag0,unknown
1545003915606,0,103,2.26318359375E-5,38,44,59,16746415,36994,2061,7670,4669,2358,1159,759,Tag0,unknown
1545003915606,0,105,2.30712890625E-5,38,44,59,16746415,36994,2061,7670,4669,2358,1159,759,Tag0,unknown
1545003915607,0,104,2.28515625E-5,38,44,59,16746415,36994,2061,7670,4669,2358,1159,759,Tag0,unknown
1545003915607,0,104,2.28515625E-5,38,44,59,16746415,36994,2061,7670,4669,2358,1159,759,Tag0,unknown
1545003915607,0,101,2.2192382812500002E-5,38,44,59,16746415,36994,2061,7670,4669,2358,1159,759,Tag0,unknown
1545003915608,0,99,2.1752929687500003E-5,38,44,59,16746415,36994,2061,7670,4669,2358,1159,759,Tag0,unknown
1545003915608,0,93,2.04345703125E-5,38,44,59,16746415,36994,2061,7670,4669,2358,1159,759,Tag0,unknown
1545003915608,0,90,1.9775390625E-5,38,44,59,16746415,36994,2061,7670,4669,2358,1159,759,Tag0,unknown
1545003915608,0,91,1.99951171875E-5,38,44,59,16746415,36994,2061,7670,4669,2358,1159,759,Tag0,unknown
1545003915625,0,98,2.1533203125E-5,38,44,59,16746415,36994,2061,7670,4669,2358,1159,759,Tag0,unknown
1545003915640,0,101,2.2192382812500002E-5,38,44,59,16746415,36994,2061,7670,4669,2358,1159,759,Tag0,unknown
1545003915640,0,93,2.04345703125E-5,38,44,59,16746415,36994,2061,7670,4669,2358,1159,759,Tag0,unknown
1545003915641,0,88,1.93359375E-5,38,44,59,16746415,36994,2061,7670,4669,2358,1159,759,Tag0,unknown
1545003915641,0,84,1.8457031250000004E-5,38,44,59,16746415,36994,2061,7670,4669,2358,1159,759,Tag0,unknown
1545003915641,0,75,1.64794921875E-5,38,44,59,16746415,36994,2061,7670,4669,2358,1159,759,Tag0,unknown
1545003915641,0,82,1.8017578124999998E-5,38,44,59,16746415,36994,2061,7670,4669,2358,1159,759,Tag0,unknown
1545003915641,0,89,1.95556640625E-5,38,44,59,16746415,36994,2061,7670,4669,2358,1159,759,Tag0,unknown
1545003915642,0,86,1.8896484375000003E-5,38,44,59,16746415,36994,2061,7670,4669,2358,1159,759,Tag0,unknown
1545003915642,0,77,1.69189453125E-5,38,44,59,16746415,36994,2061,7670,4669,2358,1159,759,Tag0,unknown
1545003915642,0,71,1.56005859375E-5,38,44,59,16746415,36994,2061,7670,4669,2358,1159,759,Tag0,unknown
1545003915642,0,69,1.51611328125E-5,38,44,59,16746415,36994,2061,7670,4669,2358,1159,759,Tag0,unknown
1545003915642,0,66,1.4501953125E-5,38,44,59,16746415,36994,2061,7670,4669,2358,1159,759,Tag0,unknown
1545003915643,0,54,1.1865234375000001E-5,38,44,59,16746415,36994,2061,7670,4669,2358,1159,759,Tag0,unknown
1545003915643,0,52,1.142578125E-5,38,44,59,16746415,36994,2061,7670,4669,2358,1159,759,Tag0,unknown
1545003915643,0,55,1.20849609375E-5,38,44,59,16746415,36994,2061,7670,4669,2358,1159,759,Tag0,unknown
1545003915644,0,57,1.2524414062500001E-5,38,44,59,16746415,36994,2061,7670,4669,2358,1159,759,Tag0,unknown
1545003915644,0,64,1.40625E-5,38,44,59,16746415,36994,2061,7670,4669,2358,1159,759,Tag0,unknown
1545003915657,0,57,1.2524414062500001E-5,38,44,59,16746415,36994,2061,7670,4669,2358,1159,759,Tag0,unknown
1545003915672,0,41,9.008789062499999E-6,38,44,59,16746415,36994,2061,7670,4669,2358,1159,759,Tag0,unknown
1545003915672,0,33,7.2509765625E-6,38,44,59,16746415,36994,2061,7670,4669,2358,1159,759,Tag0,unknown
1545003915673,0,26,5.712890625E-6,38,44,59,16746415,36994,2061,7670,4669,2358,1159,759,Tag0,unknown
1545003915673,0,26,5.712890625E-6,38,44,59,16746415,36994,2061,7670,4669,2358,1159,759,Tag0,unknown
1545003915673,0,36,7.91015625E-6,38,44,59,16746415,36994,2061,7670,4669,2358,1159,759,Tag0,unknown
1545003915673,0,41,9.008789062499999E-6,38,44,59,16746415,36994,2061,7670,4669,2358,1159,759,Tag0,unknown
1545003915674,0,50,1.0986328125E-5,38,44,59,16746415,36994,2061,7670,4669,2358,1159,759,Tag0,unknown
1545003915674,0,43,9.448242187500001E-6,38,44,59,16746415,36994,2061,7670,4669,2358,1159,759,Tag0,unknown
1545003915674,0,39,8.5693359375E-6,38,44,59,16746415,36994,2061,7670,4669,2358,1159,759,Tag0,unknown
1545003915674,0,34,7.4707031250000005E-6,38,44,59,16746415,36994,2061,7670,4669,2358,1159,759,Tag0,unknown
1545003915675,0,27,5.9326171875000005E-6,38,44,59,16746415,36994,2061,7670,4669,2358,1159,759,Tag0,unknown
1545003915675,0,27,5.9326171875000005E-6,38,44,59,16746415,36994,2061,7670,4669,2358,1159,759,Tag0,unknown
1545003915675,0,25,5.4931640625E-6,38,44,59,16746415,36994,2061,7670,4669,2358,1159,759,Tag0,unknown
1545003915675,0,22,4.833984375E-6,38,44,59,16746415,36994,2061,7670,4669,2358,1159,759,Tag0,unknown
1545003915675,0,33,7.2509765625E-6,38,44,59,16746415,36994,2061,7670,4669,2358,1159,759,Tag0,unknown
1545003915675,0,44,9.66796875E-6,38,44,59,16746415,36994,2061,7670,4669,2358,1159,759,Tag0,unknown
1545003915676,0,54,1.1865234375000001E-5,38,44,59,16746415,36994,2061,7670,4669,2358,1159,759,Tag0,unknown
1545003915688,0,54,1.1865234375000001E-5,38,44,59,16746415,36994,2061,7670,4669,2358,1159,759,Tag0,unknown
1545003915688,0,55,1.20849609375E-5,38,44,59,16746415,36994,2061,7670,4669,2358,1159,759,Tag0,unknown
1545003915692,0,65,1.42822265625E-5,38,44,59,16746415,36994,2061,7670,4669,2358,1159,759,Tag0,unknown
1545003915692,0,61,1.34033203125E-5,38,44,59,16746415,36994,2061,7670,4669,2358,1159,759,Tag0,unknown
1545003915692,0,58,1.2744140625E-5,38,44,59,16746415,36994,2061,7670,4669,2358,1159,759,Tag0,unknown
1545003915692,0,67,1.4721679687500002E-5,38,44,59,16746415,36994,2061,7670,4669,2358,1159,759,Tag0,unknown
1545003915693,0,73,1.6040039062500002E-5,38,44,59,16746415,36994,2061,7670,4669,2358,1159,759,Tag0,unknown
1545003915693,0,65,1.42822265625E-5,38,44,59,16746415,36994,2061,7670,4669,2358,1159,759,Tag0,unknown
1545003915707,0,41,9.008789062499999E-6,38,44,59,16746415,36994,2061,7670,4669,2358,1159,759,Tag0,unknown
1545003915708,0,28,6.15234375E-6,38,44,59,16746415,36994,2061,7670,4669,2358,1159,759,Tag0,unknown
1545003915708,0,26,5.712890625E-6,38,44,59,16746415,36994,2061,7670,4669,2358,1159,759,Tag0,unknown
1545003915708,0,34,7.4707031250000005E-6,38,44,59,16746415,36994,2061,7670,4669,2358,1159,759,Tag0,unknown
1545003915708,0,42,9.228515625000002E-6,38,44,59,16746415,36994,2061,7670,4669,2358,1159,759,Tag0,unknown
1545003915709,0,53,1.1645507812500002E-5,38,44,59,16746415,36994,2061,7670,4669,2358,1159,759,Tag0,unknown
1545003915709,0,65,1.42822265625E-5,38,44,59,16746415,36994,2061,7670,4669,2358,1159,759,Tag0,unknown
1545003915709,0,74,1.6259765625E-5,38,44,59,16746415,36994,2061,7670,4669,2358,1159,759,Tag0,unknown
1545003915709,0,88,1.93359375E-5,38,44,59,16746415,36994,2061,7670,4669,2358,1159,759,Tag0,unknown
1545003915709,0,101,2.2192382812500002E-5,38,44,59,16746415,36994,2061,7670,4669,2358,1159,759,Tag0,unknown
1545003915725,0,104,2.28515625E-5,38,44,59,16746415,36994,2061,7670,4669,2358,1159,759,Tag0,unknown
1545003915725,0,103,2.26318359375E-5,38,44,59,16746415,36994,2061,7670,4669,2358,1159,759,Tag0,unknown
1545003915726,0,106,2.3291015625000003E-5,38,44,59,16746415,36994,2061,7670,4669,2358,1159,759,Tag0,unknown
1545003915726,0,105,2.30712890625E-5,38,44,59,16746415,36994,2061,7670,4669,2358,1159,759,Tag0,unknown
1545003915729,0,105,2.30712890625E-5,38,44,59,16746415,36994,2061,7670,4669,2358,1159,759,Tag0,unknown
1545003915729,0,103,2.26318359375E-5,38,44,59,16746415,36994,2061,7670,4669,2358,1159,759,Tag0,unknown
1545003915729,0,107,2.35107421875E-5,38,44,59,16746415,36994,2061,7670,4669,2358,1159,759,Tag0,unknown
1545003915729,0,117,2.5708007812499998E-5,38,44,59,16746415,36994,2061,7670,4669,2358,1159,759,Tag0,unknown
1545003915730,0,113,2.48291015625E-5,38,44,59,16746415,36994,2061,7670,4669,2358,1159,759,Tag0,unknown
1545003915741,0,104,2.28515625E-5,38,44,59,16746415,36994,2061,7670,4669,2358,1159,759,Tag0,unknown
1545003915741,0,101,2.2192382812500002E-5,38,44,59,16746415,36994,2061,7670,4669,2358,1159,759,Tag0,unknown
1545003915741,0,99,2.1752929687500003E-5,38,44,59,16746415,36994,2061,7670,4669,2358,1159,759,Tag0,unknown
1545003915741,0,103,2.26318359375E-5,38,44,59,16746415,36994,2061,7670,4669,2358,1159,759,Tag0,unknown
1545003915742,0,106,2.3291015625000003E-5,38,44,59,16746415,36994,2061,7670,4669,2358,1159,759,Tag0,unknown
1545003915742,0,107,2.35107421875E-5,38,44,59,16746415,36994,2061,7670,4669,2358,1159,759,Tag0,unknown
1545003915742,0,103,2.26318359375E-5,38,44,59,16746415,36994,2061,7670,4669,2358,1159,759,Tag0,unknown
1545003915742,0,89,1.95556640625E-5,38,44,59,16746415,36994,2061,7670,4669,2358,1159,759,Tag0,unknown
1545003915753,0,81,1.77978515625E-5,38,44,59,16746415,36994,2061,7670,4669,2358,1159,759,Tag0,unknown
1545003915755,0,72,1.58203125E-5,38,44,59,16746415,36994,2061,7670,4669,2358,1159,759,Tag0,unknown
1545003915755,0,69,1.51611328125E-5,38,44,59,16746415,36994,2061,7670,4669,2358,1159,759,Tag0,unknown
1545003915758,0,81,1.77978515625E-5,38,44,59,16746415,36994,2061,7670,4669,2358,1159,759,Tag0,unknown
1545003915758,0,85,1.86767578125E-5,38,44,59,16746415,36994,2061,7670,4669,2358,1159,759,Tag0,unknown
1545003915758,0,89,1.95556640625E-5,38,44,59,16746415,36994,2061,7670,4669,2358,1159,759,Tag0,unknown
1545003915771,0,100,2.197265625E-5,38,44,59,16746415,36994,2061,7670,4669,2358,1159,759,Tag0,unknown
1545003915771,0,93,2.04345703125E-5,38,44,59,16746415,36994,2061,7670,4669,2358,1159,759,Tag0,unknown
1545003915771,0,86,1.8896484375000003E-5,38,44,59,16746415,36994,2061,7670,4669,2358,1159,759,Tag0,unknown
1545003915772,0,83,1.82373046875E-5,38,44,59,16746415,36994,2061,7670,4669,2358,1159,759,Tag0,unknown
1545003915772,0,72,1.58203125E-5,38,44,59,16746415,36994,2061,7670,4669,2358,1159,759,Tag0,unknown
1545003915772,0,56,1.23046875E-5,38,44,59,16746415,36994,2061,7670,4669,2358,1159,759,Tag0,unknown
1545003915772,0,50,1.0986328125E-5,38,44,59,16746415,36994,2061,7670,4669,2358,1159,759,Tag0,unknown
1545003915772,0,54,1.1865234375000001E-5,38,44,59,16746415,36994,2061,7670,4669,2358,1159,759,Tag0,unknown
1545003915773,0,53,1.1645507812500002E-5,38,44,59,16746415,36994,2061,7670,4669,2358,1159,759,Tag0,unknown
1545003915788,0,49,1.07666015625E-5,38,44,59,16746415,36994,2061,7670,4669,2358,1159,759,Tag0,unknown
1545003915789,0,58,1.2744140625E-5,38,44,59,16746415,36994,2061,7670,4669,2358,1159,759,Tag0,unknown
1545003915790,0,71,1.56005859375E-5,38,44,59,16746415,36994,2061,7670,4669,2358,1159,759,Tag0,unknown
1545003915793,0,66,1.4501953125E-5,38,44,59,16746415,36994,2061,7670,4669,2358,1159,759,Tag0,unknown
1545003915794,0,56,1.23046875E-5,38,44,59,16746415,36994,2061,7670,4669,2358,1159,759,Tag0,unknown
1545003915794,0,57,1.2524414062500001E-5,38,44,59,16746415,36994,2061,7670,4669,2358,1159,759,Tag0,unknown
1545003915794,0,54,1.1865234375000001E-5,38,44,59,16746415,36994,2061,7670,4669,2358,1159,759,Tag0,unknown
1545003915794,0,45,9.8876953125E-6,38,44,59,16746415,36994,2061,7670,4669,2358,1159,759,Tag0,unknown
1545003915795,0,43,9.448242187500001E-6,38,44,59,16746415,36994,2061,7670,4669,2358,1159,759,Tag0,unknown
1545003915808,0,48,1.0546875E-5,38,44,59,16746415,36994,2061,7670,4669,2358,1159,759,Tag0,unknown
1545003915808,0,59,1.29638671875E-5,38,44,59,16746415,36994,2061,7670,4669,2358,1159,759,Tag0,unknown
1545003915808,0,84,1.8457031250000004E-5,38,44,59,16746415,36994,2061,7670,4669,2358,1159,759,Tag0,unknown
1545003915809,0,99,2.1752929687500003E-5,38,44,59,16746415,36994,2061,7670,4669,2358,1159,759,Tag0,unknown
1545003915809,0,100,2.197265625E-5,38,44,59,16746415,36994,2061,7670,4669,2358,1159,759,Tag0,unknown
1545003915809,0,98,2.1533203125E-5,38,44,59,16746415,36994,2061,7670,4669,2358,1159,759,Tag0,unknown
1545003915809,0,99,2.1752929687500003E-5,38,44,59,16746415,36994,2061,7670,4669,2358,1159,759,Tag0,unknown
1545003915810,0,104,2.28515625E-5,38,44,59,16746415,36994,2061,7670,4669,2358,1159,759,Tag0,unknown
1545003915810,0,106,2.3291015625000003E-5,38,44,59,16746415,36994,2061,7670,4669,2358,1159,759,Tag0,unknown
1545003915810,0,101,2.2192382812500002E-5,38,44,59,16746415,36994,2061,7670,4669,2358,1159,759,Tag0,unknown
1545003915824,0,88,1.93359375E-5,38,44,59,16746415,36994,2061,7670,4669,2358,1159,759,Tag0,unknown
1545003915825,0,75,1.64794921875E-5,38,44,59,16746415,36994,2061,7670,4669,2358,1159,759,Tag0,unknown
1545003915825,0,53,1.1645507812500002E-5,38,44,59,16746415,36994,2061,7670,4669,2358,1159,759,Tag0,unknown
1545003915828,0,33,7.2509765625E-6,38,44,59,16746415,36994,2061,7670,4669,2358,1159,759,Tag0,unknown
1545003915828,0,38,8.349609375E-6,38,44,59,16746415,36994,2061,7670,4669,2358,1159,759,Tag0,unknown
1545003915828,0,51,1.1206054687499999E-5,38,44,59,16746415,36994,2061,7670,4669,2358,1159,759,Tag0,unknown
1545003915829,0,57,1.2524414062500001E-5,38,44,59,16746415,36994,2061,7670,4669,2358,1159,759,Tag0,unknown
1545003915829,0,56,1.23046875E-5,38,44,59,16746415,36994,2061,7670,4669,2358,1159,759,Tag0,unknown
1545003915837,0,59,1.29638671875E-5,38,44,59,16746415,36994,2061,7670,4669,2358,1159,759,Tag0,unknown
1545003915837,0,71,1.56005859375E-5,38,44,59,16746415,36994,2061,7670,4669,2358,1159,759,Tag0,unknown
1545003915837,0,74,1.6259765625E-5,38,44,59,16746415,36994,2061,7670,4669,2358,1159,759,Tag0,unknown
1545003915837,0,85,1.86767578125E-5,38,44,59,16746415,36994,2061,7670,4669,2358,1159,759,Tag0,unknown
1545003915838,0,90,1.9775390625E-5,38,44,59,16746415,36994,2061,7670,4669,2358,1159,759,Tag0,unknown
1545003915838,0,87,1.91162109375E-5,38,44,59,16746415,36994,2061,7670,4669,2358,1159,759,Tag0,unknown
1545003915838,0,74,1.6259765625E-5,38,44,59,16746415,36994,2061,7670,4669,2358,1159,759,Tag0,unknown
1545003915853,0,64,1.40625E-5,38,44,59,16746415,36994,2061,7670,4669,2358,1159,759,Tag0,unknown
1545003915854,0,70,1.5380859375E-5,38,44,59,16746415,36994,2061,7670,4669,2358,1159,759,Tag0,unknown
1545003915854,0,69,1.51611328125E-5,38,44,59,16746415,36994,2061,7670,4669,2358,1159,759,Tag0,unknown
1545003915854,0,53,1.1645507812500002E-5,38,44,59,16746415,36994,2061,7670,4669,2358,1159,759,Tag0,unknown
1545003915854,0,40,8.7890625E-6,38,44,59,16746415,36994,2061,7670,4669,2358,1159,759,Tag0,unknown
1545003915858,0,38,8.349609375E-6,38,44,59,16746415,36994,2061,7670,4669,2358,1159,759,Tag0,unknown
1545003915858,0,43,9.448242187500001E-6,38,44,59,16746415,36994,2061,7670,4669,2358,1159,759,Tag0,unknown
1545003915858,0,48,1.0546875E-5,38,44,59,16746415,36994,2061,7670,4669,2358,1159,759,Tag0,unknown
1545003915858,0,48,1.0546875E-5,38,44,59,16746415,36994,2061,7670,4669,2358,1159,759,Tag0,unknown
1545003915873,0,55,1.20849609375E-5,38,44,59,16746415,36994,2061,7670,4669,2358,1159,759,Tag0,unknown
1545003915873,0,69,1.51611328125E-5,38,44,59,16746415,36994,2061,7670,4669,2358,1159,759,Tag0,unknown
1545003915873,0,85,1.86767578125E-5,38,44,59,16746415,36994,2061,7670,4669,2358,1159,759,Tag0,unknown
1545003915874,0,83,1.82373046875E-5,38,44,59,16746415,36994,2061,7670,4669,2358,1159,759,Tag0,unknown
1545003915874,0,59,1.29638671875E-5,38,44,59,16746415,36994,2061,7670,4669,2358,1159,759,Tag0,unknown
1545003915875,0,45,9.8876953125E-6,38,44,59,16746415,36994,2061,7670,4669,2358,1159,759,Tag0,unknown
1545003915875,0,43,9.448242187500001E-6,38,44,59,16746415,36994,2061,7670,4669,2358,1159,759,Tag0,unknown
1545003915875,0,45,9.8876953125E-6,38,44,59,16746415,36994,2061,7670,4669,2358,1159,759,Tag0,unknown
1545003915875,0,53,1.1645507812500002E-5,38,44,59,16746415,36994,2061,7670,4669,2358,1159,759,Tag0,unknown
1545003915878,0,48,1.0546875E-5,38,44,59,16746415,36994,2061,7670,4669,2358,1159,759,Tag0,unknown
1545003915887,0,39,8.5693359375E-6,38,44,59,16746415,36994,2061,7670,4669,2358,1159,759,Tag0,unknown
1545003915890,0,43,9.448242187500001E-6,38,44,59,16746415,36994,2061,7670,4669,2358,1159,759,Tag0,unknown
1545003915890,0,54,1.1865234375000001E-5,38,44,59,16746415,36994,2061,7670,4669,2358,1159,759,Tag0,unknown
1545003915890,0,57,1.2524414062500001E-5,38,44,59,16746415,36994,2061,7670,4669,2358,1159,759,Tag0,unknown
1545003915890,0,52,1.142578125E-5,38,44,59,16746415,36994,2061,7670,4669,2358,1159,759,Tag0,unknown
1545003915890,0,45,9.8876953125E-6,38,44,59,16746415,36994,2061,7670,4669,2358,1159,759,Tag0,unknown
1545003915891,0,45,9.8876953125E-6,38,44,59,16746415,36994,2061,7670,4669,2358,1159,759,Tag0,unknown
1545003915909,0,50,1.0986328125E-5,38,44,59,16746415,36994,2061,7670,4669,2358,1159,759,Tag0,unknown
1545003915909,0,64,1.40625E-5,38,44,59,16746415,36994,2061,7670,4669,2358,1159,759,Tag0,unknown
1545003915909,0,71,1.56005859375E-5,38,44,59,16746415,36994,2061,7670,4669,2358,1159,759,Tag0,unknown
1545003915910,0,75,1.64794921875E-5,38,44,59,16746415,36994,2061,7670,4669,2358,1159,759,Tag0,unknown
1545003915910,0,86,1.8896484375000003E-5,38,44,59,16746415,36994,2061,7670,4669,2358,1159,759,Tag0,unknown
1545003915911,0,86,1.8896484375000003E-5,38,44,59,16746415,36994,2061,7670,4669,2358,1159,759,Tag0,unknown
1545003915911,0,68,1.4941406250000001E-5,38,44,59,16746415,36994,2061,7670,4669,2358,1159,759,Tag0,unknown
1545003915911,0,52,1.142578125E-5,38,44,59,16746415,36994,2061,7670,4669,2358,1159,759,Tag0,unknown
1545003915912,0,51,1.1206054687499999E-5,38,44,59,16746415,36994,2061,7670,4669,2358,1159,759,Tag0,unknown
1545003915912,0,55,1.20849609375E-5,38,44,59,16746415,36994,2061,7670,4669,2358,1159,759,Tag0,unknown
1545003915920,0,59,1.29638671875E-5,38,44,59,16746415,36994,2061,7670,4669,2358,1159,759,Tag0,unknown
1545003915920,0,65,1.42822265625E-5,38,44,59,16746415,36994,2061,7670,4669,2358,1159,759,Tag0,unknown
1545003915920,0,54,1.1865234375000001E-5,38,44,59,16746415,36994,2061,7670,4669,2358,1159,759,Tag0,unknown
1545003915923,0,52,1.142578125E-5,38,44,59,16746415,36994,2061,7670,4669,2358,1159,759,Tag0,unknown
1545003915924,0,65,1.42822265625E-5,38,44,59,16746415,36994,2061,7670,4669,2358,1159,759,Tag0,unknown
1545003915924,0,82,1.8017578124999998E-5,38,44,59,16746415,36994,2061,7670,4669,2358,1159,759,Tag0,unknown
1545003915924,0,90,1.9775390625E-5,38,44,59,16746415,36994,2061,7670,4669,2358,1159,759,Tag0,unknown
1545003915940,0,81,1.77978515625E-5,38,44,59,16746415,36994,2061,7670,4669,2358,1159,759,Tag0,unknown
1545003915940,0,60,1.318359375E-5,38,44,59,16746415,36994,2061,7670,4669,2358,1159,759,Tag0,unknown
1545003915940,0,65,1.42822265625E-5,38,44,59,16746415,36994,2061,7670,4669,2358,1159,759,Tag0,unknown
1545003915940,0,89,1.95556640625E-5,38,44,59,16746415,36994,2061,7670,4669,2358,1159,759,Tag0,unknown
1545003915941,0,83,1.82373046875E-5,38,44,59,16746415,36994,2061,7670,4669,2358,1159,759,Tag0,unknown
1545003915941,0,51,1.1206054687499999E-5,38,44,59,16746415,36994,2061,7670,4669,2358,1159,759,Tag0,unknown
1545003915941,0,38,8.349609375E-6,38,44,59,16746415,36994,2061,7670,4669,2358,1159,759,Tag0,unknown
1545003915941,0,34,7.4707031250000005E-6,38,44,59,16746415,36994,2061,7670,4669,2358,1159,759,Tag0,unknown
1545003915941,0,39,8.5693359375E-6,38,44,59,16746415,36994,2061,7670,4669,2358,1159,759,Tag0,unknown
1545003915954,0,39,8.5693359375E-6,38,44,59,16746415,36994,2061,7670,4669,2358,1159,759,Tag0,unknown
1545003915954,0,24,5.2734375E-6,38,44,59,16746415,36994,2061,7670,4669,2358,1159,759,Tag0,unknown
1545003915954,0,26,5.712890625E-6,38,44,59,16746415,36994,2061,7670,4669,2358,1159,759,Tag0,unknown
1545003915957,0,34,7.4707031250000005E-6,38,44,59,16746415,36994,2061,7670,4669,2358,1159,759,Tag0,unknown
1545003915958,0,33,7.2509765625E-6,38,44,59,16746415,36994,2061,7670,4669,2358,1159,759,Tag0,unknown
1545003915958,0,24,5.2734375E-6,38,44,59,16746415,36994,2061,7670,4669,2358,1159,759,Tag0,unknown
1545003915958,0,23,5.0537109375E-6,38,44,59,16746415,36994,2061,7670,4669,2358,1159,759,Tag0,unknown
1545003915958,0,25,5.4931640625E-6,38,44,59,16746415,36994,2061,7670,4669,2358,1159,759,Tag0,unknown
1545003915971,0,27,5.9326171875000005E-6,38,44,59,16746415,36994,2061,7670,4669,2358,1159,759,Tag0,unknown
1545003915971,0,27,5.9326171875000005E-6,38,44,59,16746415,36994,2061,7670,4669,2358,1159,759,Tag0,unknown
1545003915972,0,38,8.349609375E-6,38,44,59,16746415,36994,2061,7670,4669,2358,1159,759,Tag0,unknown
1545003915972,0,32,7.03125E-6,38,44,59,16746415,36994,2061,7670,4669,2358,1159,759,Tag0,unknown
1545003915972,0,27,5.9326171875000005E-6,38,44,59,16746415,36994,2061,7670,4669,2358,1159,759,Tag0,unknown
1545003915972,0,37,8.1298828125E-6,38,44,59,16746415,36994,2061,7670,4669,2358,1159,759,Tag0,unknown
1545003915972,0,34,7.4707031250000005E-6,38,44,59,16746415,36994,2061,7670,4669,2358,1159,759,Tag0,unknown
1545003915973,0,20,4.39453125E-6,38,44,59,16746415,36994,2061,7670,4669,2358,1159,759,Tag0,unknown
1545003915988,0,32,7.03125E-6,38,44,59,16746415,36994,2061,7670,4669,2358,1159,759,Tag0,unknown
1545003915988,0,52,1.142578125E-5,38,44,59,16746415,36994,2061,7670,4669,2358,1159,759,Tag0,unknown
1545003915991,0,64,1.40625E-5,38,44,59,16746415,36994,2061,7670,4669,2358,1159,759,Tag0,unknown
1545003915991,0,71,1.56005859375E-5,38,44,59,16746415,36994,2061,7670,4669,2358,1159,759,Tag0,unknown
1545003915992,0,73,1.6040039062500002E-5,38,44,59,16746415,36994,2061,7670,4669,2358,1159,759,Tag0,unknown
1545003915992,0,70,1.5380859375E-5,38,44,59,16746415,36994,2061,7670,4669,2358,1159,759,Tag0,unknown
1545003915992,0,69,1.51611328125E-5,38,44,59,16746415,36994,2061,7670,4669,2358,1159,759,Tag0,unknown
1545003915992,0,69,1.51611328125E-5,38,44,59,16746415,36994,2061,7670,4669,2358,1159,759,Tag0,unknown
1545003915993,0,70,1.5380859375E-5,38,44,59,16746415,36994,2061,7670,4669,2358,1159,759,Tag0,unknown
1545003916006,0,69,1.51611328125E-5,38,44,59,16746415,36994,2061,7670,4669,2358,1159,759,Tag0,unknown
1545003916006,0,69,1.51611328125E-5,38,44,59,16746415,36994,2061,7670,4669,2358,1159,759,Tag0,unknown
1545003916006,0,70,1.5380859375E-5,38,44,59,16746415,36994,2061,7670,4669,2358,1159,759,Tag0,unknown
1545003916006,0,65,1.42822265625E-5,38,44,59,16746415,36994,2061,7670,4669,2358,1159,759,Tag0,unknown
1545003916007,0,56,1.23046875E-5,38,44,59,16746415,36994,2061,7670,4669,2358,1159,759,Tag0,unknown
1545003916007,0,49,1.07666015625E-5,38,44,59,16746415,36994,2061,7670,4669,2358,1159,759,Tag0,unknown
1545003916007,0,53,1.1645507812500002E-5,38,44,59,16746415,36994,2061,7670,4669,2358,1159,759,Tag0,unknown
1545003916007,0,58,1.2744140625E-5,38,44,59,16746415,36994,2061,7670,4669,2358,1159,759,Tag0,unknown
1545003916007,0,48,1.0546875E-5,38,44,59,16746415,36994,2061,7670,4669,2358,1159,759,Tag0,unknown
1545003916008,0,36,7.91015625E-6,38,44,59,16746415,36994,2061,7670,4669,2358,1159,759,Tag0,unknown
1545003916037,0,39,8.5693359375E-6,38,44,59,16746415,36994,2061,7670,4669,2358,1159,759,Tag0,unknown
1545003916041,0,51,1.1206054687499999E-5,38,44,59,16746415,36994,2061,7670,4669,2358,1159,759,Tag0,unknown
1545003916041,0,48,1.0546875E-5,38,44,59,16746415,36994,2061,7670,4669,2358,1159,759,Tag0,unknown
1545003916041,0,41,9.008789062499999E-6,38,44,59,16746415,36994,2061,7670,4669,2358,1159,759,Tag0,unknown
1545003916041,0,41,9.008789062499999E-6,38,44,59,16746415,36994,2061,7670,4669,2358,1159,759,Tag0,unknown
1545003916041,0,41,9.008789062499999E-6,38,44,59,16746415,36994,2061,7670,4669,2358,1159,759,Tag0,unknown
1545003916042,0,45,9.8876953125E-6,38,44,59,16746415,36994,2061,7670,4669,2358,1159,759,Tag0,unknown
1545003916042,0,48,1.0546875E-5,38,44,59,16746415,36994,2061,7670,4669,2358,1159,759,Tag0,unknown
1545003916042,0,34,7.4707031250000005E-6,38,44,59,16746415,36994,2061,7670,4669,2358,1159,759,Tag0,unknown
1545003916042,0,25,5.4931640625E-6,38,44,59,16746415,36994,2061,7670,4669,2358,1159,759,Tag0,unknown
1545003916042,0,27,5.9326171875000005E-6,38,44,59,16746415,36994,2061,7670,4669,2358,1159,759,Tag0,unknown
1545003916043,0,34,7.4707031250000005E-6,38,44,59,16746415,36994,2061,7670,4669,2358,1159,759,Tag0,unknown
1545003916043,0,27,5.9326171875000005E-6,38,44,59,16746415,36994,2061,7670,4669,2358,1159,759,Tag0,unknown
1545003916043,0,27,5.9326171875000005E-6,38,44,59,16746415,36994,2061,7670,4669,2358,1159,759,Tag0,unknown
1545003916043,0,25,5.4931640625E-6,38,44,59,16746415,36994,2061,7670,4669,2358,1159,759,Tag0,unknown
1545003916043,0,9,1.9775390625E-6,38,44,59,16746415,36994,2061,7670,4669,2358,1159,759,Tag0,unknown
1545003916055,0,-262,-5.7568359375E-5,38,44,59,16746415,36994,2061,7670,4669,2358,1159,759,Tag0,unknown
1545003916056,0,-269,-5.9106445312499996E-5,38,44,59,16746415,36994,2061,7670,4669,2358,1159,759,Tag0,unknown
1545003916056,0,-260,-5.712890625E-5,38,44,59,16746415,36994,2061,7670,4669,2358,1159,759,Tag0,unknown
1545003916057,0,1,2.197265625E-7,38,44,59,16746415,36994,2061,7670,4669,2358,1159,759,Tag0,unknown
1545003916057,0,7,1.5380859375E-6,38,44,59,16746415,36994,2061,7670,4669,2358,1159,759,Tag0,unknown
1545003916058,0,40,8.7890625E-6,38,44,59,16746415,36994,2061,7670,4669,2358,1159,759,Tag0,unknown
1545003916058,0,60,1.318359375E-5,38,44,59,16746415,36994,2061,7670,4669,2358,1159,759,Tag0,unknown
1545003916058,0,56,1.23046875E-5,38,44,59,16746415,36994,2061,7670,4669,2358,1159,759,Tag0,unknown
1545003916058,0,48,1.0546875E-5,38,44,59,16746415,36994,2061,7670,4669,2358,1159,759,Tag0,unknown
1545003916071,0,51,1.1206054687499999E-5,38,44,59,16746415,36994,2061,7670,4669,2358,1159,759,Tag0,unknown
1545003916071,0,66,1.4501953125E-5,38,44,59,16746415,36994,2061,7670,4669,2358,1159,759,Tag0,unknown
1545003916071,0,74,1.6259765625E-5,38,44,59,16746415,36994,2061,7670,4669,2358,1159,759,Tag0,unknown
1545003916072,0,67,1.4721679687500002E-5,38,44,59,16746415,36994,2061,7670,4669,2358,1159,759,Tag0,unknown
1545003916075,0,48,1.0546875E-5,38,44,59,16746415,36994,2061,7670,4669,2358,1159,759,Tag0,unknown
1545003916075,0,26,5.712890625E-6,38,44,59,16746415,36994,2061,7670,4669,2358,1159,759,Tag0,unknown
1545003916075,0,32,7.03125E-6,38,44,59,16746415,36994,2061,7670,4669,2358,1159,759,Tag0,unknown
1545003916075,0,55,1.20849609375E-5,38,44,59,16746415,36994,2061,7670,4669,2358,1159,759,Tag0,unknown
1545003916088,0,66,1.4501953125E-5,38,44,59,16746415,36994,2061,7670,4669,2358,1159,759,Tag0,unknown
1545003916088,0,56,1.23046875E-5,38,44,59,16746415,36994,2061,7670,4669,2358,1159,759,Tag0,unknown
1545003916088,0,44,9.66796875E-6,38,44,59,16746415,36994,2061,7670,4669,2358,1159,759,Tag0,unknown
1545003916089,0,50,1.0986328125E-5,38,44,59,16746415,36994,2061,7670,4669,2358,1159,759,Tag0,unknown
1545003916089,0,65,1.42822265625E-5,38,44,59,16746415,36994,2061,7670,4669,2358,1159,759,Tag0,unknown
1545003916089,0,70,1.5380859375E-5,38,44,59,16746415,36994,2061,7670,4669,2358,1159,759,Tag0,unknown
1545003916089,0,69,1.51611328125E-5,38,44,59,16746415,36994,2061,7670,4669,2358,1159,759,Tag0,unknown
1545003916089,0,69,1.51611328125E-5,38,44,59,16746415,36994,2061,7670,4669,2358,1159,759,Tag0,unknown
1545003916090,0,74,1.6259765625E-5,38,44,59,16746415,36994,2061,7670,4669,2358,1159,759,Tag0,unknown
1545003916105,0,76,1.669921875E-5,38,44,59,16746415,36994,2061,7670,4669,2358,1159,759,Tag0,unknown
1545003916106,0,71,1.56005859375E-5,38,44,59,16746415,36994,2061,7670,4669,2358,1159,759,Tag0,unknown
1545003916106,0,64,1.40625E-5,38,44,59,16746415,36994,2061,7670,4669,2358,1159,759,Tag0,unknown
1545003916106,0,57,1.2524414062500001E-5,38,44,59,16746415,36994,2061,7670,4669,2358,1159,759,Tag0,unknown
1545003916106,0,54,1.1865234375000001E-5,38,44,59,16746415,36994,2061,7670,4669,2358,1159,759,Tag0,unknown
1545003916109,0,55,1.20849609375E-5,38,44,59,16746415,36994,2061,7670,4669,2358,1159,759,Tag0,unknown
1545003916124,0,50,1.0986328125E-5,38,44,59,16746415,36994,2061,7670,4669,2358,1159,759,Tag0,unknown
1545003916124,0,43,9.448242187500001E-6,38,44,59,16746415,36994,2061,7670,4669,2358,1159,759,Tag0,unknown
1545003916124,0,57,1.2524414062500001E-5,38,44,59,16746415,36994,2061,7670,4669,2358,1159,759,Tag0,unknown
1545003916124,0,61,1.34033203125E-5,38,44,59,16746415,36994,2061,7670,4669,2358,1159,759,Tag0,unknown
1545003916125,0,49,1.07666015625E-5,38,44,59,16746415,36994,2061,7670,4669,2358,1159,759,Tag0,unknown
1545003916125,0,42,9.228515625000002E-6,38,44,59,16746415,36994,2061,7670,4669,2358,1159,759,Tag0,unknown
1545003916125,0,32,7.03125E-6,38,44,59,16746415,36994,2061,7670,4669,2358,1159,759,Tag0,unknown
1545003916125,0,21,4.614257812500001E-6,38,44,59,16746415,36994,2061,7670,4669,2358,1159,759,Tag0,unknown
1545003916125,0,19,4.1748046875E-6,38,44,59,16746415,36994,2061,7670,4669,2358,1159,759,Tag0,unknown
1545003916126,0,25,5.4931640625E-6,38,44,59,16746415,36994,2061,7670,4669,2358,1159,759,Tag0,unknown
1545003916126,0,37,8.1298828125E-6,38,44,59,16746415,36994,2061,7670,4669,2358,1159,759,Tag0,unknown
1545003916142,0,37,8.1298828125E-6,38,44,59,16746415,36994,2061,7670,4669,2358,1159,759,Tag0,unknown
1545003916143,0,34,7.4707031250000005E-6,38,44,59,16746415,36994,2061,7670,4669,2358,1159,759,Tag0,unknown
1545003916143,0,26,5.712890625E-6,38,44,59,16746415,36994,2061,7670,4669,2358,1159,759,Tag0,unknown
1545003916144,0,20,4.39453125E-6,38,44,59,16746415,36994,2061,7670,4669,2358,1159,759,Tag0,unknown
1545003916144,0,17,3.7353515625000003E-6,38,44,59,16746415,36994,2061,7670,4669,2358,1159,759,Tag0,unknown
1545003916145,0,16,3.515625E-6,38,44,59,16746415,36994,2061,7670,4669,2358,1159,759,Tag0,unknown
1545003916145,0,9,1.9775390625E-6,38,44,59,16746415,36994,2061,7670,4669,2358,1159,759,Tag0,unknown
1545003916155,0,12,2.63671875E-6,38,44,59,16746415,36994,2061,7670,4669,2358,1159,759,Tag0,unknown
1545003916155,0,7,1.5380859375E-6,38,44,59,16746415,36994,2061,7670,4669,2358,1159,759,Tag0,unknown
1545003916156,0,-262,-5.7568359375E-5,38,44,59,16746415,36994,2061,7670,4669,2358,1159,759,Tag0,unknown
1545003916156,0,-275,-6.04248046875E-5,38,44,59,16746415,36994,2061,7670,4669,2358,1159,759,Tag0,unknown
1545003916159,0,-283,-6.218261718750001E-5,38,44,59,16746415,36994,2061,7670,4669,2358,1159,759,Tag0,unknown
1545003916161,0,-285,-6.26220703125E-5,38,44,59,16746415,36994,2061,7670,4669,2358,1159,759,Tag0,unknown
1545003916161,0,-282,-6.1962890625E-5,38,44,59,16746415,36994,2061,7670,4669,2358,1159,759,Tag0,unknown
1545003916161,0,-285,-6.26220703125E-5,38,44,59,16746415,36994,2061,7670,4669,2358,1159,759,Tag0,unknown
1545003916161,0,-285,-6.26220703125E-5,38,44,59,16746415,36994,2061,7670,4669,2358,1159,759,Tag0,unknown
1545003916162,0,-280,-6.15234375E-5,38,44,59,16746415,36994,2061,7670,4669,2358,1159,759,Tag0,unknown
1545003916172,0,-267,-5.86669921875E-5,38,44,59,16746415,36994,2061,7670,4669,2358,1159,759,Tag0,unknown
1545003916173,0,3,6.591796875E-7,38,44,59,16746415,36994,2061,7670,4669,2358,1159,759,Tag0,unknown
1545003916173,0,12,2.63671875E-6,38,44,59,16746415,36994,2061,7670,4669,2358,1159,759,Tag0,unknown
1545003916173,0,24,5.2734375E-6,38,44,59,16746415,36994,2061,7670,4669,2358,1159,759,Tag0,unknown
1545003916187,0,25,5.4931640625E-6,38,44,59,16746415,36994,2061,7670,4669,2358,1159,759,Tag0,unknown
1545003916187,0,33,7.2509765625E-6,38,44,59,16746415,36994,2061,7670,4669,2358,1159,759,Tag0,unknown
1545003916187,0,41,9.008789062499999E-6,38,44,59,16746415,36994,2061,7670,4669,2358,1159,759,Tag0,unknown
1545003916188,0,42,9.228515625000002E-6,38,44,59,16746415,36994,2061,7670,4669,2358,1159,759,Tag0,unknown
1545003916188,0,34,7.4707031250000005E-6,38,44,59,16746415,36994,2061,7670,4669,2358,1159,759,Tag0,unknown
1545003916188,0,18,3.955078125E-6,38,44,59,16746415,36994,2061,7670,4669,2358,1159,759,Tag0,unknown
1545003916188,0,4,8.7890625E-7,38,44,59,16746415,36994,2061,7670,4669,2358,1159,759,Tag0,unknown
1545003916189,0,0,0.0,38,44,59,16746415,36994,2061,7670,4669,2358,1159,759,Tag0,unknown
1545003916189,0,8,1.7578125E-6,38,44,59,16746415,36994,2061,7670,4669,2358,1159,759,Tag0,unknown
1545003916189,0,21,4.614257812500001E-6,38,44,59,16746415,36994,2061,7670,4669,2358,1159,759,Tag0,unknown
1545003916189,0,11,2.4169921875E-6,38,44,59,16746415,36994,2061,7670,4669,2358,1159,759,Tag0,unknown
1545003916189,0,-263,-5.7788085937500005E-5,38,44,59,16746415,36994,2061,7670,4669,2358,1159,759,Tag0,unknown
1545003916204,0,-269,-5.9106445312499996E-5,38,44,59,16746415,36994,2061,7670,4669,2358,1159,759,Tag0,unknown
1545003916205,0,-264,-5.80078125E-5,38,44,59,16746415,36994,2061,7670,4669,2358,1159,759,Tag0,unknown
1545003916206,0,-258,-5.6689453125000004E-5,38,44,59,16746415,36994,2061,7670,4669,2358,1159,759,Tag0,unknown
1545003916206,0,-259,-5.69091796875E-5,38,44,59,16746415,36994,2061,7670,4669,2358,1159,759,Tag0,unknown
1545003916206,0,2,4.39453125E-7,38,44,59,16746415,36994,2061,7670,4669,2358,1159,759,Tag0,unknown
1545003916206,0,8,1.7578125E-6,38,44,59,16746415,36994,2061,7670,4669,2358,1159,759,Tag0,unknown
1545003916207,0,18,3.955078125E-6,38,44,59,16746415,36994,2061,7670,4669,2358,1159,759,Tag0,unknown
1545003916207,0,25,5.4931640625E-6,38,44,59,16746415,36994,2061,7670,4669,2358,1159,759,Tag0,unknown
1545003916207,0,27,5.9326171875000005E-6,38,44,59,16746415,36994,2061,7670,4669,2358,1159,759,Tag0,unknown
1545003916226,0,12,2.63671875E-6,38,44,59,16746415,36994,2061,7670,4669,2358,1159,759,Tag0,unknown
1545003916226,0,-257,-5.64697265625E-5,38,44,59,16746415,36994,2061,7670,4669,2358,1159,759,Tag0,unknown
1545003916227,0,10,2.197265625E-6,38,44,59,16746415,36994,2061,7670,4669,2358,1159,759,Tag0,unknown
1545003916227,0,24,5.2734375E-6,38,44,59,16746415,36994,2061,7670,4669,2358,1159,759,Tag0,unknown
1545003916228,0,37,8.1298828125E-6,38,44,59,16746415,36994,2061,7670,4669,2358,1159,759,Tag0,unknown
1545003916228,0,38,8.349609375E-6,38,44,59,16746415,36994,2061,7670,4669,2358,1159,759,Tag0,unknown
1545003916229,0,25,5.4931640625E-6,38,44,59,16746415,36994,2061,7670,4669,2358,1159,759,Tag0,unknown
1545003916229,0,21,4.614257812500001E-6,38,44,59,16746415,36994,2061,7670,4669,2358,1159,759,Tag0,unknown
1545003916229,0,27,5.9326171875000005E-6,38,44,59,16746415,36994,2061,7670,4669,2358,1159,759,Tag0,unknown
1545003916229,0,42,9.228515625000002E-6,38,44,59,16746415,36994,2061,7670,4669,2358,1159,759,Tag0,unknown
1545003916229,0,42,9.228515625000002E-6,38,44,59,16746415,36994,2061,7670,4669,2358,1159,759,Tag0,unknown
1545003916240,0,35,7.6904296875E-6,38,44,59,16746415,36994,2061,7670,4669,2358,1159,759,Tag0,unknown
1545003916240,0,27,5.9326171875000005E-6,38,44,59,16746415,36994,2061,7670,4669,2358,1159,759,Tag0,unknown
1545003916243,0,21,4.614257812500001E-6,38,44,59,16746415,36994,2061,7670,4669,2358,1159,759,Tag0,unknown
1545003916243,0,26,5.712890625E-6,38,44,59,16746415,36994,2061,7670,4669,2358,1159,759,Tag0,unknown
1545003916243,0,32,7.03125E-6,38,44,59,16746415,36994,2061,7670,4669,2358,1159,759,Tag0,unknown
1545003916243,0,34,7.4707031250000005E-6,38,44,59,16746415,36994,2061,7670,4669,2358,1159,759,Tag0,unknown
1545003916243,0,35,7.6904296875E-6,38,44,59,16746415,36994,2061,7670,4669,2358,1159,759,Tag0,unknown
1545003916257,0,28,6.15234375E-6,38,44,59,16746415,36994,2061,7670,4669,2358,1159,759,Tag0,unknown
1545003916257,0,22,4.833984375E-6,38,44,59,16746415,36994,2061,7670,4669,2358,1159,759,Tag0,unknown
1545003916258,0,23,5.0537109375E-6,38,44,59,16746415,36994,2061,7670,4669,2358,1159,759,Tag0,unknown
1545003916258,0,18,3.955078125E-6,38,44,59,16746415,36994,2061,7670,4669,2358,1159,759,Tag0,unknown
1545003916259,0,6,1.318359375E-6,38,44,59,16746415,36994,2061,7670,4669,2358,1159,759,Tag0,unknown
1545003916260,0,27,5.9326171875000005E-6,38,44,59,16746415,36994,2061,7670,4669,2358,1159,759,Tag0,unknown
1545003916260,0,50,1.0986328125E-5,38,44,59,16746415,36994,2061,7670,4669,2358,1159,759,Tag0,unknown
1545003916260,0,40,8.7890625E-6,38,44,59,16746415,36994,2061,7670,4669,2358,1159,759,Tag0,unknown
1545003916260,0,26,5.712890625E-6,38,44,59,16746415,36994,2061,7670,4669,2358,1159,759,Tag0,unknown
1545003916271,0,26,5.712890625E-6,38,44,59,16746415,36994,2061,7670,4669,2358,1159,759,Tag0,unknown
1545003916271,0,36,7.91015625E-6,38,44,59,16746415,36994,2061,7670,4669,2358,1159,759,Tag0,unknown
1545003916271,0,40,8.7890625E-6,38,44,59,16746415,36994,2061,7670,4669,2358,1159,759,Tag0,unknown
1545003916272,0,42,9.228515625000002E-6,38,44,59,16746415,36994,2061,7670,4669,2358,1159,759,Tag0,unknown
1545003916272,0,39,8.5693359375E-6,38,44,59,16746415,36994,2061,7670,4669,2358,1159,759,Tag0,unknown
1545003916272,0,33,7.2509765625E-6,38,44,59,16746415,36994,2061,7670,4669,2358,1159,759,Tag0,unknown
1545003916272,0,27,5.9326171875000005E-6,38,44,59,16746415,36994,2061,7670,4669,2358,1159,759,Tag0,unknown
1545003916287,0,26,5.712890625E-6,38,44,59,16746415,36994,2061,7670,4669,2358,1159,759,Tag0,unknown
1545003916287,0,19,4.1748046875E-6,38,44,59,16746415,36994,2061,7670,4669,2358,1159,759,Tag0,unknown
1545003916287,0,17,3.7353515625000003E-6,38,44,59,16746415,36994,2061,7670,4669,2358,1159,759,Tag0,unknown
1545003916288,0,23,5.0537109375E-6,38,44,59,16746415,36994,2061,7670,4669,2358,1159,759,Tag0,unknown
1545003916288,0,26,5.712890625E-6,38,44,59,16746415,36994,2061,7670,4669,2358,1159,759,Tag0,unknown
1545003916288,0,26,5.712890625E-6,38,44,59,16746415,36994,2061,7670,4669,2358,1159,759,Tag0,unknown
1545003916288,0,39,8.5693359375E-6,38,44,59,16746415,36994,2061,7670,4669,2358,1159,759,Tag0,unknown
1545003916288,0,65,1.42822265625E-5,38,44,59,16746415,36994,2061,7670,4669,2358,1159,759,Tag0,unknown
1545003916306,0,74,1.6259765625E-5,38,44,59,16746415,36994,2061,7670,4669,2358,1159,759,Tag0,unknown
1545003916306,0,72,1.58203125E-5,38,44,59,16746415,36994,2061,7670,4669,2358,1159,759,Tag0,unknown
1545003916307,0,73,1.6040039062500002E-5,38,44,59,16746415,36994,2061,7670,4669,2358,1159,759,Tag0,unknown
1545003916307,0,75,1.64794921875E-5,38,44,59,16746415,36994,2061,7670,4669,2358,1159,759,Tag0,unknown
1545003916307,0,75,1.64794921875E-5,38,44,59,16746415,36994,2061,7670,4669,2358,1159,759,Tag0,unknown
1545003916308,0,73,1.6040039062500002E-5,38,44,59,16746415,36994,2061,7670,4669,2358,1159,759,Tag0,unknown
1545003916308,0,73,1.6040039062500002E-5,38,44,59,16746415,36994,2061,7670,4669,2358,1159,759,Tag0,unknown
1545003916308,0,71,1.56005859375E-5,38,44,59,16746415,36994,2061,7670,4669,2358,1159,759,Tag0,unknown
1545003916325,0,66,1.4501953125E-5,38,44,59,16746415,36994,2061,7670,4669,2358,1159,759,Tag0,unknown
1545003916325,0,58,1.2744140625E-5,38,44,59,16746415,36994,2061,7670,4669,2358,1159,759,Tag0,unknown
1545003916327,0,48,1.0546875E-5,38,44,59,16746415,36994,2061,7670,4669,2358,1159,759,Tag0,unknown
1545003916327,0,39,8.5693359375E-6,38,44,59,16746415,36994,2061,7670,4669,2358,1159,759,Tag0,unknown
1545003916327,0,33,7.2509765625E-6,38,44,59,16746415,36994,2061,7670,4669,2358,1159,759,Tag0,unknown
1545003916327,0,32,7.03125E-6,38,44,59,16746415,36994,2061,7670,4669,2358,1159,759,Tag0,unknown
1545003916328,0,42,9.228515625000002E-6,38,44,59,16746415,36994,2061,7670,4669,2358,1159,759,Tag0,unknown
1545003916328,0,48,1.0546875E-5,38,44,59,16746415,36994,2061,7670,4669,2358,1159,759,Tag0,unknown
1545003916328,0,38,8.349609375E-6,38,44,59,16746415,36994,2061,7670,4669,2358,1159,759,Tag0,unknown
1545003916328,0,29,6.3720703125E-6,38,44,59,16746415,36994,2061,7670,4669,2358,1159,759,Tag0,unknown
1545003916328,0,19,4.1748046875E-6,38,44,59,16746415,36994,2061,7670,4669,2358,1159,759,Tag0,unknown
1545003916329,0,16,3.515625E-6,38,44,59,16746415,36994,2061,7670,4669,2358,1159,759,Tag0,unknown
1545003916337,0,34,7.4707031250000005E-6,38,44,59,16746415,36994,2061,7670,4669,2358,1159,759,Tag0,unknown
1545003916337,0,59,1.29638671875E-5,38,44,59,16746415,36994,2061,7670,4669,2358,1159,759,Tag0,unknown
1545003916338,0,67,1.4721679687500002E-5,38,44,59,16746415,36994,2061,7670,4669,2358,1159,759,Tag0,unknown
1545003916338,0,59,1.29638671875E-5,38,44,59,16746415,36994,2061,7670,4669,2358,1159,759,Tag0,unknown
1545003916338,0,51,1.1206054687499999E-5,38,44,59,16746415,36994,2061,7670,4669,2358,1159,759,Tag0,unknown
1545003916338,0,44,9.66796875E-6,38,44,59,16746415,36994,2061,7670,4669,2358,1159,759,Tag0,unknown
1545003916356,0,53,1.1645507812500002E-5,38,44,59,16746415,36994,2061,7670,4669,2358,1159,759,Tag0,unknown
1545003916357,0,59,1.29638671875E-5,38,44,59,16746415,36994,2061,7670,4669,2358,1159,759,Tag0,unknown
1545003916357,0,64,1.40625E-5,38,44,59,16746415,36994,2061,7670,4669,2358,1159,759,Tag0,unknown
1545003916357,0,67,1.4721679687500002E-5,38,44,59,16746415,36994,2061,7670,4669,2358,1159,759,Tag0,unknown
1545003916357,0,68,1.4941406250000001E-5,38,44,59,16746415,36994,2061,7670,4669,2358,1159,759,Tag0,unknown
1545003916357,0,68,1.4941406250000001E-5,38,44,59,16746415,36994,2061,7670,4669,2358,1159,759,Tag0,unknown
1545003916358,0,64,1.40625E-5,38,44,59,16746415,36994,2061,7670,4669,2358,1159,759,Tag0,unknown
1545003916358,0,60,1.318359375E-5,38,44,59,16746415,36994,2061,7670,4669,2358,1159,759,Tag0,unknown
1545003916358,0,58,1.2744140625E-5,38,44,59,16746415,36994,2061,7670,4669,2358,1159,759,Tag0,unknown
1545003916370,0,55,1.20849609375E-5,38,44,59,16746415,36994,2061,7670,4669,2358,1159,759,Tag0,unknown
1545003916370,0,53,1.1645507812500002E-5,38,44,59,16746415,36994,2061,7670,4669,2358,1159,759,Tag0,unknown
1545003916371,0,51,1.1206054687499999E-5,38,44,59,16746415,36994,2061,7670,4669,2358,1159,759,Tag0,unknown
1545003916371,0,57,1.2524414062500001E-5,38,44,59,16746415,36994,2061,7670,4669,2358,1159,759,Tag0,unknown
1545003916371,0,58,1.2744140625E-5,38,44,59,16746415,36994,2061,7670,4669,2358,1159,759,Tag0,unknown
1545003916372,0,53,1.1645507812500002E-5,38,44,59,16746415,36994,2061,7670,4669,2358,1159,759,Tag0,unknown
1545003916372,0,57,1.2524414062500001E-5,38,44,59,16746415,36994,2061,7670,4669,2358,1159,759,Tag0,unknown
1545003916372,0,72,1.58203125E-5,38,44,59,16746415,36994,2061,7670,4669,2358,1159,759,Tag0,unknown
1545003916386,0,83,1.82373046875E-5,38,44,59,16746415,36994,2061,7670,4669,2358,1159,759,Tag0,unknown
1545003916387,0,87,1.91162109375E-5,38,44,59,16746415,36994,2061,7670,4669,2358,1159,759,Tag0,unknown
1545003916387,0,80,1.7578125E-5,38,44,59,16746415,36994,2061,7670,4669,2358,1159,759,Tag0,unknown
1545003916387,0,55,1.20849609375E-5,38,44,59,16746415,36994,2061,7670,4669,2358,1159,759,Tag0,unknown
1545003916388,0,54,1.1865234375000001E-5,38,44,59,16746415,36994,2061,7670,4669,2358,1159,759,Tag0,unknown
1545003916388,0,74,1.6259765625E-5,38,44,59,16746415,36994,2061,7670,4669,2358,1159,759,Tag0,unknown
1545003916388,0,84,1.8457031250000004E-5,38,44,59,16746415,36994,2061,7670,4669,2358,1159,759,Tag0,unknown
1545003916388,0,74,1.6259765625E-5,38,44,59,16746415,36994,2061,7670,4669,2358,1159,759,Tag0,unknown
1545003916388,0,60,1.318359375E-5,38,44,59,16746415,36994,2061,7670,4669,2358,1159,759,Tag0,unknown
1545003916404,0,52,1.142578125E-5,38,44,59,16746415,36994,2061,7670,4669,2358,1159,759,Tag0,unknown
1545003916406,0,52,1.142578125E-5,38,44,59,16746415,36994,2061,7670,4669,2358,1159,759,Tag0,unknown
1545003916407,0,55,1.20849609375E-5,38,44,59,16746415,36994,2061,7670,4669,2358,1159,759,Tag0,unknown
1545003916407,0,56,1.23046875E-5,38,44,59,16746415,36994,2061,7670,4669,2358,1159,759,Tag0,unknown
1545003916407,0,54,1.1865234375000001E-5,38,44,59,16746415,36994,2061,7670,4669,2358,1159,759,Tag0,unknown
1545003916407,0,48,1.0546875E-5,38,44,59,16746415,36994,2061,7670,4669,2358,1159,759,Tag0,unknown
1545003916407,0,36,7.91015625E-6,38,44,59,16746415,36994,2061,7670,4669,2358,1159,759,Tag0,unknown
1545003916408,0,27,5.9326171875000005E-6,38,44,59,16746415,36994,2061,7670,4669,2358,1159,759,Tag0,unknown
1545003916420,0,33,7.2509765625E-6,38,44,59,16746415,36994,2061,7670,4669,2358,1159,759,Tag0,unknown
1545003916421,0,42,9.228515625000002E-6,38,44,59,16746415,36994,2061,7670,4669,2358,1159,759,Tag0,unknown
1545003916421,0,64,1.40625E-5,38,44,59,16746415,36994,2061,7670,4669,2358,1159,759,Tag0,unknown
1545003916422,0,74,1.6259765625E-5,38,44,59,16746415,36994,2061,7670,4669,2358,1159,759,Tag0,unknown
1545003916422,0,70,1.5380859375E-5,38,44,59,16746415,36994,2061,7670,4669,2358,1159,759,Tag0,unknown
1545003916422,0,58,1.2744140625E-5,38,44,59,16746415,36994,2061,7670,4669,2358,1159,759,Tag0,unknown
1545003916422,0,55,1.20849609375E-5,38,44,59,16746415,36994,2061,7670,4669,2358,1159,759,Tag0,unknown
1545003916423,0,60,1.318359375E-5,38,44,59,16746415,36994,2061,7670,4669,2358,1159,759,Tag0,unknown
1545003916423,0,60,1.318359375E-5,38,44,59,16746415,36994,2061,7670,4669,2358,1159,759,Tag0,unknown
1545003916438,0,57,1.2524414062500001E-5,38,44,59,16746415,36994,2061,7670,4669,2358,1159,759,Tag0,unknown
1545003916438,0,51,1.1206054687499999E-5,38,44,59,16746415,36994,2061,7670,4669,2358,1159,759,Tag0,unknown
1545003916439,0,35,7.6904296875E-6,38,44,59,16746415,36994,2061,7670,4669,2358,1159,759,Tag0,unknown
1545003916441,0,26,5.712890625E-6,43,40,59,70917,16749901,2756,8630,6063,6098,2610,1085,Tag0,unknown
1545003916457,0,18,3.955078125E-6,43,40,59,70917,16749901,2756,8630,6063,6098,2610,1085,Tag0,unknown
1545003916457,0,10,2.197265625E-6,43,40,59,70917,16749901,2756,8630,6063,6098,2610,1085,Tag0,unknown
1545003916457,0,20,4.39453125E-6,43,40,59,70917,16749901,2756,8630,6063,6098,2610,1085,Tag0,unknown
1545003916458,0,16,3.515625E-6,43,40,59,70917,16749901,2756,8630,6063,6098,2610,1085,Tag0,unknown
1545003916458,0,-261,-5.73486328125E-5,43,40,59,70917,16749901,2756,8630,6063,6098,2610,1085,Tag0,unknown
1545003916458,0,-263,-5.7788085937500005E-5,43,40,59,70917,16749901,2756,8630,6063,6098,2610,1085,Tag0,unknown
1545003916458,0,-261,-5.73486328125E-5,43,40,59,70917,16749901,2756,8630,6063,6098,2610,1085,Tag0,unknown
1545003916458,0,7,1.5380859375E-6,43,40,59,70917,16749901,2756,8630,6063,6098,2610,1085,Tag0,unknown
1545003916459,0,25,5.4931640625E-6,43,40,59,70917,16749901,2756,8630,6063,6098,2610,1085,Tag0,unknown
1545003916459,0,37,8.1298828125E-6,43,40,59,70917,16749901,2756,8630,6063,6098,2610,1085,Tag0,unknown
1545003916459,0,41,9.008789062499999E-6,43,40,59,70917,16749901,2756,8630,6063,6098,2610,1085,Tag0,unknown
1545003916459,0,32,7.03125E-6,43,40,59,70917,16749901,2756,8630,6063,6098,2610,1085,Tag0,unknown
1545003916470,0,28,6.15234375E-6,43,40,59,70917,16749901,2756,8630,6063,6098,2610,1085,Tag0,unknown
1545003916471,0,54,1.1865234375000001E-5,43,40,59,70917,16749901,2756,8630,6063,6098,2610,1085,Tag0,unknown
1545003916471,0,75,1.64794921875E-5,43,40,59,70917,16749901,2756,8630,6063,6098,2610,1085,Tag0,unknown
1545003916471,0,70,1.5380859375E-5,43,40,59,70917,16749901,2756,8630,6063,6098,2610,1085,Tag0,unknown
1545003916471,0,65,1.42822265625E-5,43,40,59,70917,16749901,2756,8630,6063,6098,2610,1085,Tag0,unknown
1545003916472,0,70,1.5380859375E-5,43,40,59,70917,16749901,2756,8630,6063,6098,2610,1085,Tag0,unknown
1545003916472,0,75,1.64794921875E-5,43,40,59,70917,16749901,2756,8630,6063,6098,2610,1085,Tag0,unknown
1545003916472,0,85,1.86767578125E-5,43,40,59,70917,16749901,2756,8630,6063,6098,2610,1085,Tag0,unknown
