timestampMs,poorSignal,eegRawValue,eegRawValueVolts,attention,meditation,blinkStrength,delta,theta,alphaLow,alphaHigh,betaLow,betaHigh,gammaLow,gammaMid,tagEvent,location
1545011686769,0,-267,-5.86669921875E-5,43,41,39,1537683,59738,16765782,9886,8739,4015,5809,4174,Tag0,unknown
1545011686769,0,-260,-5.712890625E-5,43,41,39,1537683,59738,16765782,9886,8739,4015,5809,4174,Tag0,unknown
1545011686769,0,-289,-6.35009765625E-5,43,41,39,1537683,59738,16765782,9886,8739,4015,5809,4174,Tag0,unknown
1545011686770,0,-316,-6.943359375000001E-5,43,41,39,1537683,59738,16765782,9886,8739,4015,5809,4174,Tag0,unknown
1545011686770,0,-313,-6.87744140625E-5,43,41,39,1537683,59738,16765782,9886,8739,4015,5809,4174,Tag0,unknown
1545011686770,0,-274,-6.0205078124999997E-5,43,41,39,1537683,59738,16765782,9886,8739,4015,5809,4174,Tag0,unknown
1545011686770,0,4,8.7890625E-7,43,41,39,1537683,59738,16765782,9886,8739,4015,5809,4174,Tag0,unknown
1545011686770,0,-274,-6.0205078124999997E-5,43,41,39,1537683,59738,16765782,9886,8739,4015,5809,4174,Tag0,unknown
1545011686782,0,-293,-6.43798828125E-5,43,41,39,1537683,59738,16765782,9886,8739,4015,5809,4174,Tag0,unknown
1545011686782,0,-277,-6.0864257812500005E-5,43,41,39,1537683,59738,16765782,9886,8739,4015,5809,4174,Tag0,unknown
1545011686782,0,19,4.1748046875E-6,43,41,39,1537683,59738,16765782,9886,8739,4015,5809,4174,Tag0,unknown
1545011686783,0,29,6.3720703125E-6,43,41,39,1537683,59738,16765782,9886,8739,4015,5809,4174,Tag0,unknown
1545011686783,0,2,4.39453125E-7,43,41,39,1537683,59738,16765782,9886,8739,4015,5809,4174,Tag0,unknown
1545011686783,0,-277,-6.0864257812500005E-5,43,41,39,1537683,59738,16765782,9886,8739,4015,5809,4174,Tag0,unknown
1545011686783,0,3,6.591796875E-7,43,41,39,1537683,59738,16765782,9886,8739,4015,5809,4174,Tag0,unknown
1545011686783,0,68,1.4941406250000001E-5,43,41,39,1537683,59738,16765782,9886,8739,4015,5809,4174,Tag0,unknown
1545011686783,0,112,2.4609375E-5,43,41,39,1537683,59738,16765782,9886,8739,4015,5809,4174,Tag0,unknown
1545011686796,0,99,2.1752929687500003E-5,43,41,39,1537683,59738,16765782,9886,8739,4015,5809,4174,Tag0,unknown
1545011686797,0,72,1.58203125E-5,43,41,39,1537683,59738,16765782,9886,8739,4015,5809,4174,Tag0,unknown
1545011686797,0,60,1.318359375E-5,43,41,39,1537683,59738,16765782,9886,8739,4015,5809,4174,Tag0,unknown
1545011686797,0,81,1.77978515625E-5,43,41,39,1537683,59738,16765782,9886,8739,4015,5809,4174,Tag0,unknown
1545011686797,0,98,2.1533203125E-5,43,41,39,1537683,59738,16765782,9886,8739,4015,5809,4174,Tag0,unknown
1545011686798,0,64,1.40625E-5,43,41,39,1537683,59738,16765782,9886,8739,4015,5809,4174,Tag0,unknown
1545011686798,0,9,1.9775390625E-6,43,41,39,1537683,59738,16765782,9886,8739,4015,5809,4174,Tag0,unknown
1545011686798,0,2,4.39453125E-7,43,41,39,1537683,59738,16765782,9886,8739,4015,5809,4174,Tag0,unknown
1545011686813,0,49,1.07666015625E-5,43,41,39,1537683,59738,16765782,9886,8739,4015,5809,4174,Tag0,unknown
1545011686814,0,89,1.95556640625E-5,43,41,39,1537683,59738,16765782,9886,8739,4015,5809,4174,Tag0,unknown
1545011686814,0,81,1.77978515625E-5,43,41,39,1537683,59738,16765782,9886,8739,4015,5809,4174,Tag0,unknown
1545011686815,0,37,8.1298828125E-6,43,41,39,1537683,59738,16765782,9886,8739,4015,5809,4174,Tag0,unknown
1545011686815,0,10,2.197265625E-6,43,41,39,1537683,59738,16765782,9886,8739,4015,5809,4174,Tag0,unknown
1545011686815,0,27,5.9326171875000005E-6,43,41,39,1537683,59738,16765782,9886,8739,4015,5809,4174,Tag0,unknown
1545011686815,0,66,1.4501953125E-5,43,41,39,1537683,59738,16765782,9886,8739,4015,5809,4174,Tag0,unknown
1545011686815,0,74,1.6259765625E-5,43,41,39,1537683,59738,16765782,9886,8739,4015,5809,4174,Tag0,unknown
1545011686815,0,51,1.1206054687499999E-5,43,41,39,1537683,59738,16765782,9886,8739,4015,5809,4174,Tag0,unknown
1545011686830,0,24,5.2734375E-6,43,41,39,1537683,59738,16765782,9886,8739,4015,5809,4174,Tag0,unknown
1545011686830,0,37,8.1298828125E-6,43,41,39,1537683,59738,16765782,9886,8739,4015,5809,4174,Tag0,unknown
1545011686830,0,80,1.7578125E-5,43,41,39,1537683,59738,16765782,9886,8739,4015,5809,4174,Tag0,unknown
1545011686831,0,89,1.95556640625E-5,43,41,39,1537683,59738,16765782,9886,8739,4015,5809,4174,Tag0,unknown
1545011686831,0,61,1.34033203125E-5,43,41,39,1537683,59738,16765782,9886,8739,4015,5809,4174,Tag0,unknown
1545011686831,0,35,7.6904296875E-6,43,41,39,1537683,59738,16765782,9886,8739,4015,5809,4174,Tag0,unknown
1545011686831,0,44,9.66796875E-6,43,41,39,1537683,59738,16765782,9886,8739,4015,5809,4174,Tag0,unknown
1545011686831,0,86,1.8896484375000003E-5,43,41,39,1537683,59738,16765782,9886,8739,4015,5809,4174,Tag0,unknown
1545011686846,0,98,2.1533203125E-5,43,41,39,1537683,59738,16765782,9886,8739,4015,5809,4174,Tag0,unknown
1545011686849,0,64,1.40625E-5,43,41,39,1537683,59738,16765782,9886,8739,4015,5809,4174,Tag0,unknown
1545011686849,0,25,5.4931640625E-6,43,41,39,1537683,59738,16765782,9886,8739,4015,5809,4174,Tag0,unknown
1545011686849,0,49,1.07666015625E-5,43,41,39,1537683,59738,16765782,9886,8739,4015,5809,4174,Tag0,unknown
1545011686849,0,105,2.30712890625E-5,43,41,39,1537683,59738,16765782,9886,8739,4015,5809,4174,Tag0,unknown
1545011686849,0,123,2.70263671875E-5,43,41,39,1537683,59738,16765782,9886,8739,4015,5809,4174,Tag0,unknown
1545011686850,0,96,2.109375E-5,43,41,39,1537683,59738,16765782,9886,8739,4015,5809,4174,Tag0,unknown
1545011686850,0,48,1.0546875E-5,43,41,39,1537683,59738,16765782,9886,8739,4015,5809,4174,Tag0,unknown
1545011686863,0,28,6.15234375E-6,43,41,39,1537683,59738,16765782,9886,8739,4015,5809,4174,Tag0,unknown
1545011686863,0,66,1.4501953125E-5,43,41,39,1537683,59738,16765782,9886,8739,4015,5809,4174,Tag0,unknown
1545011686864,0,88,1.93359375E-5,43,41,39,1537683,59738,16765782,9886,8739,4015,5809,4174,Tag0,unknown
1545011686864,0,66,1.4501953125E-5,43,41,39,1537683,59738,16765782,9886,8739,4015,5809,4174,Tag0,unknown
1545011686864,0,37,8.1298828125E-6,43,41,39,1537683,59738,16765782,9886,8739,4015,5809,4174,Tag0,unknown
1545011686864,0,45,9.8876953125E-6,43,41,39,1537683,59738,16765782,9886,8739,4015,5809,4174,Tag0,unknown
1545011686864,0,86,1.8896484375000003E-5,43,41,39,1537683,59738,16765782,9886,8739,4015,5809,4174,Tag0,unknown
1545011686864,0,106,2.3291015625000003E-5,43,41,39,1537683,59738,16765782,9886,8739,4015,5809,4174,Tag0,unknown
1545011686864,0,89,1.95556640625E-5,43,41,39,1537683,59738,16765782,9886,8739,4015,5809,4174,Tag0,unknown
1545011686880,0,65,1.42822265625E-5,43,41,39,1537683,59738,16765782,9886,8739,4015,5809,4174,Tag0,unknown
1545011686880,0,68,1.4941406250000001E-5,43,41,39,1537683,59738,16765782,9886,8739,4015,5809,4174,Tag0,unknown
1545011686883,0,92,2.021484375E-5,43,41,39,1537683,59738,16765782,9886,8739,4015,5809,4174,Tag0,unknown
1545011686883,0,99,2.1752929687500003E-5,43,41,39,1537683,59738,16765782,9886,8739,4015,5809,4174,Tag0,unknown
1545011686883,0,67,1.4721679687500002E-5,43,41,39,1537683,59738,16765782,9886,8739,4015,5809,4174,Tag0,unknown
1545011686883,0,26,5.712890625E-6,43,41,39,1537683,59738,16765782,9886,8739,4015,5809,4174,Tag0,unknown
1545011686883,0,22,4.833984375E-6,43,41,39,1537683,59738,16765782,9886,8739,4015,5809,4174,Tag0,unknown
1545011686883,0,71,1.56005859375E-5,43,41,39,1537683,59738,16765782,9886,8739,4015,5809,4174,Tag0,unknown
1545011686884,0,118,2.5927734375E-5,43,41,39,1537683,59738,16765782,9886,8739,4015,5809,4174,Tag0,unknown
1545011686896,0,105,2.30712890625E-5,43,41,39,1537683,59738,16765782,9886,8739,4015,5809,4174,Tag0,unknown
1545011686897,0,52,1.142578125E-5,43,41,39,1537683,59738,16765782,9886,8739,4015,5809,4174,Tag0,unknown
1545011686897,0,22,4.833984375E-6,43,41,39,1537683,59738,16765782,9886,8739,4015,5809,4174,Tag0,unknown
1545011686897,0,43,9.448242187500001E-6,43,41,39,1537683,59738,16765782,9886,8739,4015,5809,4174,Tag0,unknown
1545011686897,0,75,1.64794921875E-5,43,41,39,1537683,59738,16765782,9886,8739,4015,5809,4174,Tag0,unknown
1545011686897,0,66,1.4501953125E-5,43,41,39,1537683,59738,16765782,9886,8739,4015,5809,4174,Tag0,unknown
1545011686898,0,25,5.4931640625E-6,43,41,39,1537683,59738,16765782,9886,8739,4015,5809,4174,Tag0,unknown
1545011686898,0,9,1.9775390625E-6,43,41,39,1537683,59738,16765782,9886,8739,4015,5809,4174,Tag0,unknown
1545011686925,0,41,9.008789062499999E-6,43,41,39,1537683,59738,16765782,9886,8739,4015,5809,4174,Tag0,unknown
1545011686926,0,73,1.6040039062500002E-5,43,41,39,1537683,59738,16765782,9886,8739,4015,5809,4174,Tag0,unknown
1545011686926,0,65,1.42822265625E-5,43,41,39,1537683,59738,16765782,9886,8739,4015,5809,4174,Tag0,unknown
1545011686931,0,32,7.03125E-6,43,41,39,1537683,59738,16765782,9886,8739,4015,5809,4174,Tag0,unknown
1545011686932,0,7,1.5380859375E-6,43,41,39,1537683,59738,16765782,9886,8739,4015,5809,4174,Tag0,unknown
1545011686932,0,17,3.7353515625000003E-6,43,41,39,1537683,59738,16765782,9886,8739,4015,5809,4174,Tag0,unknown
1545011686933,0,39,8.5693359375E-6,43,41,39,1537683,59738,16765782,9886,8739,4015,5809,4174,Tag0,unknown
1545011686933,0,27,5.9326171875000005E-6,43,41,39,1537683,59738,16765782,9886,8739,4015,5809,4174,Tag0,unknown
1545011686933,0,-277,-6.0864257812500005E-5,43,41,39,1537683,59738,16765782,9886,8739,4015,5809,4174,Tag0,unknown
1545011686933,0,-307,-6.74560546875E-5,43,41,39,1537683,59738,16765782,9886,8739,4015,5809,4174,Tag0,unknown
1545011686933,0,-290,-6.3720703125E-5,43,41,39,1537683,59738,16765782,9886,8739,4015,5809,4174,Tag0,unknown
1545011686933,0,1,2.197265625E-7,43,41,39,1537683,59738,16765782,9886,8739,4015,5809,4174,Tag0,unknown
1545011686934,0,2,4.39453125E-7,43,41,39,1537683,59738,16765782,9886,8739,4015,5809,4174,Tag0,unknown
1545011686934,0,-294,-6.4599609375E-5,43,41,39,1537683,59738,16765782,9886,8739,4015,5809,4174,Tag0,unknown
1545011686934,0,-331,-7.272949218750001E-5,43,41,39,1537683,59738,16765782,9886,8739,4015,5809,4174,Tag0,unknown
1545011686934,0,-323,-7.09716796875E-5,43,41,39,1537683,59738,16765782,9886,8739,4015,5809,4174,Tag0,unknown
1545011686946,0,-267,-5.86669921875E-5,43,41,39,1537683,59738,16765782,9886,8739,4015,5809,4174,Tag0,unknown
1545011686947,0,10,2.197265625E-6,43,41,39,1537683,59738,16765782,9886,8739,4015,5809,4174,Tag0,unknown
1545011686947,0,-276,-6.064453125E-5,43,41,39,1537683,59738,16765782,9886,8739,4015,5809,4174,Tag0,unknown
1545011686947,0,-313,-6.87744140625E-5,43,41,39,1537683,59738,16765782,9886,8739,4015,5809,4174,Tag0,unknown
1545011686947,0,-299,-6.56982421875E-5,43,41,39,1537683,59738,16765782,9886,8739,4015,5809,4174,Tag0,unknown
1545011686947,0,12,2.63671875E-6,43,41,39,1537683,59738,16765782,9886,8739,4015,5809,4174,Tag0,unknown
1545011686947,0,48,1.0546875E-5,43,41,39,1537683,59738,16765782,9886,8739,4015,5809,4174,Tag0,unknown
1545011686947,0,27,5.9326171875000005E-6,43,41,39,1537683,59738,16765782,9886,8739,4015,5809,4174,Tag0,unknown
1545011686947,0,-262,-5.7568359375E-5,43,41,39,1537683,59738,16765782,9886,8739,4015,5809,4174,Tag0,unknown
1545011686948,0,-263,-5.7788085937500005E-5,43,41,39,1537683,59738,16765782,9886,8739,4015,5809,4174,Tag0,unknown
1545011686964,0,32,7.03125E-6,43,41,39,1537683,59738,16765782,9886,8739,4015,5809,4174,Tag0,unknown
1545011686965,0,57,1.2524414062500001E-5,43,41,39,1537683,59738,16765782,9886,8739,4015,5809,4174,Tag0,unknown
1545011686965,0,38,8.349609375E-6,43,41,39,1537683,59738,16765782,9886,8739,4015,5809,4174,Tag0,unknown
1545011686965,0,16,3.515625E-6,43,41,39,1537683,59738,16765782,9886,8739,4015,5809,4174,Tag0,unknown
1545011686965,0,23,5.0537109375E-6,43,41,39,1537683,59738,16765782,9886,8739,4015,5809,4174,Tag0,unknown
1545011686966,0,64,1.40625E-5,43,41,39,1537683,59738,16765782,9886,8739,4015,5809,4174,Tag0,unknown
1545011686966,0,85,1.86767578125E-5,43,41,39,1537683,59738,16765782,9886,8739,4015,5809,4174,Tag0,unknown
1545011686966,0,57,1.2524414062500001E-5,43,41,39,1537683,59738,16765782,9886,8739,4015,5809,4174,Tag0,unknown
1545011686966,0,22,4.833984375E-6,43,41,39,1537683,59738,16765782,9886,8739,4015,5809,4174,Tag0,unknown
1545011686980,0,19,4.1748046875E-6,43,41,39,1537683,59738,16765782,9886,8739,4015,5809,4174,Tag0,unknown
1545011686981,0,44,9.66796875E-6,43,41,39,1537683,59738,16765782,9886,8739,4015,5809,4174,Tag0,unknown
1545011686981,0,77,1.69189453125E-5,43,41,39,1537683,59738,16765782,9886,8739,4015,5809,4174,Tag0,unknown
1545011686981,0,73,1.6040039062500002E-5,43,41,39,1537683,59738,16765782,9886,8739,4015,5809,4174,Tag0,unknown
1545011686981,0,41,9.008789062499999E-6,43,41,39,1537683,59738,16765782,9886,8739,4015,5809,4174,Tag0,unknown
1545011686982,0,34,7.4707031250000005E-6,43,41,39,1537683,59738,16765782,9886,8739,4015,5809,4174,Tag0,unknown
1545011686982,0,64,1.40625E-5,43,41,39,1537683,59738,16765782,9886,8739,4015,5809,4174,Tag0,unknown
1545011686984,0,88,1.93359375E-5,43,41,39,1537683,59738,16765782,9886,8739,4015,5809,4174,Tag0,unknown
1545011686996,0,69,1.51611328125E-5,43,41,39,1537683,59738,16765782,9886,8739,4015,5809,4174,Tag0,unknown
1545011686997,0,34,7.4707031250000005E-6,43,41,39,1537683,59738,16765782,9886,8739,4015,5809,4174,Tag0,unknown
1545011686997,0,22,4.833984375E-6,43,41,39,1537683,59738,16765782,9886,8739,4015,5809,4174,Tag0,unknown
1545011686997,0,57,1.2524414062500001E-5,43,41,39,1537683,59738,16765782,9886,8739,4015,5809,4174,Tag0,unknown
1545011686997,0,101,2.2192382812500002E-5,43,41,39,1537683,59738,16765782,9886,8739,4015,5809,4174,Tag0,unknown
1545011687014,0,96,2.109375E-5,34,40,39,163108,93562,12764,13243,5743,6149,1457,1678,Tag0,unknown
1545011687014,0,50,1.0986328125E-5,34,40,39,163108,93562,12764,13243,5743,6149,1457,1678,Tag0,unknown
1545011687014,0,12,2.63671875E-6,34,40,39,163108,93562,12764,13243,5743,6149,1457,1678,Tag0,unknown
1545011687015,0,28,6.15234375E-6,34,40,39,163108,93562,12764,13243,5743,6149,1457,1678,Tag0,unknown
1545011687015,0,66,1.4501953125E-5,34,40,39,163108,93562,12764,13243,5743,6149,1457,1678,Tag0,unknown
1545011687015,0,67,1.4721679687500002E-5,34,40,39,163108,93562,12764,13243,5743,6149,1457,1678,Tag0,unknown
1545011687015,0,37,8.1298828125E-6,34,40,39,163108,93562,12764,13243,5743,6149,1457,1678,Tag0,unknown
1545011687015,0,9,1.9775390625E-6,34,40,39,163108,93562,12764,13243,5743,6149,1457,1678,Tag0,unknown
1545011687015,0,16,3.515625E-6,34,40,39,163108,93562,12764,13243,5743,6149,1457,1678,Tag0,unknown
1545011687015,0,55,1.20849609375E-5,34,40,39,163108,93562,12764,13243,5743,6149,1457,1678,Tag0,unknown
1545011687015,0,72,1.58203125E-5,34,40,39,163108,93562,12764,13243,5743,6149,1457,1678,Tag0,unknown
1545011687015,0,43,9.448242187500001E-6,34,40,39,163108,93562,12764,13243,5743,6149,1457,1678,Tag0,unknown
1545011687030,0,7,1.5380859375E-6,34,40,39,163108,93562,12764,13243,5743,6149,1457,1678,Tag0,unknown
1545011687031,0,17,3.7353515625000003E-6,34,40,39,163108,93562,12764,13243,5743,6149,1457,1678,Tag0,unknown
1545011687031,0,67,1.4721679687500002E-5,34,40,39,163108,93562,12764,13243,5743,6149,1457,1678,Tag0,unknown
1545011687031,0,100,2.197265625E-5,34,40,39,163108,93562,12764,13243,5743,6149,1457,1678,Tag0,unknown
1545011687031,0,89,1.95556640625E-5,34,40,39,163108,93562,12764,13243,5743,6149,1457,1678,Tag0,unknown
1545011687031,0,52,1.142578125E-5,34,40,39,163108,93562,12764,13243,5743,6149,1457,1678,Tag0,unknown
1545011687031,0,35,7.6904296875E-6,34,40,39,163108,93562,12764,13243,5743,6149,1457,1678,Tag0,unknown
1545011687031,0,59,1.29638671875E-5,34,40,39,163108,93562,12764,13243,5743,6149,1457,1678,Tag0,unknown
1545011687031,0,96,2.109375E-5,34,40,39,163108,93562,12764,13243,5743,6149,1457,1678,Tag0,unknown
1545011687046,0,93,2.04345703125E-5,34,40,39,163108,93562,12764,13243,5743,6149,1457,1678,Tag0,unknown
1545011687046,0,68,1.4941406250000001E-5,34,40,39,163108,93562,12764,13243,5743,6149,1457,1678,Tag0,unknown
1545011687046,0,65,1.42822265625E-5,34,40,39,163108,93562,12764,13243,5743,6149,1457,1678,Tag0,unknown
1545011687046,0,98,2.1533203125E-5,34,40,39,163108,93562,12764,13243,5743,6149,1457,1678,Tag0,unknown
1545011687046,0,113,2.48291015625E-5,34,40,39,163108,93562,12764,13243,5743,6149,1457,1678,Tag0,unknown
1545011687046,0,81,1.77978515625E-5,34,40,39,163108,93562,12764,13243,5743,6149,1457,1678,Tag0,unknown
1545011687046,0,34,7.4707031250000005E-6,34,40,39,163108,93562,12764,13243,5743,6149,1457,1678,Tag0,unknown
1545011687046,0,25,5.4931640625E-6,34,40,39,163108,93562,12764,13243,5743,6149,1457,1678,Tag0,unknown
1545011687062,0,58,1.2744140625E-5,34,40,39,163108,93562,12764,13243,5743,6149,1457,1678,Tag0,unknown
1545011687064,0,83,1.82373046875E-5,34,40,39,163108,93562,12764,13243,5743,6149,1457,1678,Tag0,unknown
1545011687064,0,50,1.0986328125E-5,34,40,39,163108,93562,12764,13243,5743,6149,1457,1678,Tag0,unknown
1545011687064,0,1,2.197265625E-7,34,40,39,163108,93562,12764,13243,5743,6149,1457,1678,Tag0,unknown
1545011687064,0,-259,-5.69091796875E-5,34,40,39,163108,93562,12764,13243,5743,6149,1457,1678,Tag0,unknown
1545011687064,0,44,9.66796875E-6,34,40,39,163108,93562,12764,13243,5743,6149,1457,1678,Tag0,unknown
1545011687064,0,96,2.109375E-5,34,40,39,163108,93562,12764,13243,5743,6149,1457,1678,Tag0,unknown
1545011687064,0,87,1.91162109375E-5,34,40,39,163108,93562,12764,13243,5743,6149,1457,1678,Tag0,unknown
1545011687079,0,48,1.0546875E-5,34,40,39,163108,93562,12764,13243,5743,6149,1457,1678,Tag0,unknown
1545011687080,0,23,5.0537109375E-6,34,40,39,163108,93562,12764,13243,5743,6149,1457,1678,Tag0,unknown
1545011687080,0,40,8.7890625E-6,34,40,39,163108,93562,12764,13243,5743,6149,1457,1678,Tag0,unknown
1545011687080,0,86,1.8896484375000003E-5,34,40,39,163108,93562,12764,13243,5743,6149,1457,1678,Tag0,unknown
1545011687080,0,91,1.99951171875E-5,34,40,39,163108,93562,12764,13243,5743,6149,1457,1678,Tag0,unknown
1545011687080,0,51,1.1206054687499999E-5,34,40,39,163108,93562,12764,13243,5743,6149,1457,1678,Tag0,unknown
1545011687080,0,17,3.7353515625000003E-6,34,40,39,163108,93562,12764,13243,5743,6149,1457,1678,Tag0,unknown
1545011687080,0,38,8.349609375E-6,34,40,39,163108,93562,12764,13243,5743,6149,1457,1678,Tag0,unknown
1545011687080,0,86,1.8896484375000003E-5,34,40,39,163108,93562,12764,13243,5743,6149,1457,1678,Tag0,unknown
1545011687098,0,87,1.91162109375E-5,34,40,39,163108,93562,12764,13243,5743,6149,1457,1678,Tag0,unknown
1545011687100,0,45,9.8876953125E-6,34,40,39,163108,93562,12764,13243,5743,6149,1457,1678,Tag0,unknown
1545011687100,0,13,2.8564453125E-6,34,40,39,163108,93562,12764,13243,5743,6149,1457,1678,Tag0,unknown
1545011687100,0,27,5.9326171875000005E-6,34,40,39,163108,93562,12764,13243,5743,6149,1457,1678,Tag0,unknown
1545011687100,0,72,1.58203125E-5,34,40,39,163108,93562,12764,13243,5743,6149,1457,1678,Tag0,unknown
1545011687101,0,85,1.86767578125E-5,34,40,39,163108,93562,12764,13243,5743,6149,1457,1678,Tag0,unknown
1545011687101,0,55,1.20849609375E-5,34,40,39,163108,93562,12764,13243,5743,6149,1457,1678,Tag0,unknown
1545011687101,0,21,4.614257812500001E-6,34,40,39,163108,93562,12764,13243,5743,6149,1457,1678,Tag0,unknown
1545011687101,0,24,5.2734375E-6,34,40,39,163108,93562,12764,13243,5743,6149,1457,1678,Tag0,unknown
1545011687112,0,66,1.4501953125E-5,34,40,39,163108,93562,12764,13243,5743,6149,1457,1678,Tag0,unknown
1545011687113,0,85,1.86767578125E-5,34,40,39,163108,93562,12764,13243,5743,6149,1457,1678,Tag0,unknown
1545011687115,0,61,1.34033203125E-5,34,40,39,163108,93562,12764,13243,5743,6149,1457,1678,Tag0,unknown
1545011687117,0,22,4.833984375E-6,34,40,39,163108,93562,12764,13243,5743,6149,1457,1678,Tag0,unknown
1545011687118,0,10,2.197265625E-6,34,40,39,163108,93562,12764,13243,5743,6149,1457,1678,Tag0,unknown
1545011687118,0,50,1.0986328125E-5,34,40,39,163108,93562,12764,13243,5743,6149,1457,1678,Tag0,unknown
1545011687118,0,80,1.7578125E-5,34,40,39,163108,93562,12764,13243,5743,6149,1457,1678,Tag0,unknown
1545011687119,0,64,1.40625E-5,34,40,39,163108,93562,12764,13243,5743,6149,1457,1678,Tag0,unknown
1545011687129,0,27,5.9326171875000005E-6,34,40,39,163108,93562,12764,13243,5743,6149,1457,1678,Tag0,unknown
1545011687129,0,17,3.7353515625000003E-6,34,40,39,163108,93562,12764,13243,5743,6149,1457,1678,Tag0,unknown
1545011687130,0,53,1.1645507812500002E-5,34,40,39,163108,93562,12764,13243,5743,6149,1457,1678,Tag0,unknown
1545011687130,0,97,2.13134765625E-5,34,40,39,163108,93562,12764,13243,5743,6149,1457,1678,Tag0,unknown
1545011687130,0,91,1.99951171875E-5,34,40,39,163108,93562,12764,13243,5743,6149,1457,1678,Tag0,unknown
1545011687130,0,48,1.0546875E-5,34,40,39,163108,93562,12764,13243,5743,6149,1457,1678,Tag0,unknown
1545011687130,0,16,3.515625E-6,34,40,39,163108,93562,12764,13243,5743,6149,1457,1678,Tag0,unknown
1545011687130,0,36,7.91015625E-6,34,40,39,163108,93562,12764,13243,5743,6149,1457,1678,Tag0,unknown
1545011687147,0,69,1.51611328125E-5,34,40,39,163108,93562,12764,13243,5743,6149,1457,1678,Tag0,unknown
1545011687147,0,60,1.318359375E-5,34,40,39,163108,93562,12764,13243,5743,6149,1457,1678,Tag0,unknown
1545011687148,0,34,7.4707031250000005E-6,34,40,39,163108,93562,12764,13243,5743,6149,1457,1678,Tag0,unknown
1545011687148,0,27,5.9326171875000005E-6,34,40,39,163108,93562,12764,13243,5743,6149,1457,1678,Tag0,unknown
1545011687148,0,57,1.2524414062500001E-5,34,40,39,163108,93562,12764,13243,5743,6149,1457,1678,Tag0,unknown
1545011687148,0,81,1.77978515625E-5,34,40,39,163108,93562,12764,13243,5743,6149,1457,1678,Tag0,unknown
1545011687148,0,60,1.318359375E-5,34,40,39,163108,93562,12764,13243,5743,6149,1457,1678,Tag0,unknown
1545011687148,0,23,5.0537109375E-6,34,40,39,163108,93562,12764,13243,5743,6149,1457,1678,Tag0,unknown
1545011687148,0,12,2.63671875E-6,34,40,39,163108,93562,12764,13243,5743,6149,1457,1678,Tag0,unknown
1545011687162,0,42,9.228515625000002E-6,34,40,39,163108,93562,12764,13243,5743,6149,1457,1678,Tag0,unknown
1545011687162,0,77,1.69189453125E-5,34,40,39,163108,93562,12764,13243,5743,6149,1457,1678,Tag0,unknown
1545011687163,0,76,1.669921875E-5,34,40,39,163108,93562,12764,13243,5743,6149,1457,1678,Tag0,unknown
1545011687163,0,42,9.228515625000002E-6,34,40,39,163108,93562,12764,13243,5743,6149,1457,1678,Tag0,unknown
1545011687163,0,25,5.4931640625E-6,34,40,39,163108,93562,12764,13243,5743,6149,1457,1678,Tag0,unknown
1545011687163,0,51,1.1206054687499999E-5,34,40,39,163108,93562,12764,13243,5743,6149,1457,1678,Tag0,unknown
1545011687163,0,90,1.9775390625E-5,34,40,39,163108,93562,12764,13243,5743,6149,1457,1678,Tag0,unknown
1545011687163,0,89,1.95556640625E-5,34,40,39,163108,93562,12764,13243,5743,6149,1457,1678,Tag0,unknown
1545011687180,0,51,1.1206054687499999E-5,34,40,39,163108,93562,12764,13243,5743,6149,1457,1678,Tag0,unknown
1545011687181,0,12,2.63671875E-6,34,40,39,163108,93562,12764,13243,5743,6149,1457,1678,Tag0,unknown
1545011687185,0,25,5.4931640625E-6,34,40,39,163108,93562,12764,13243,5743,6149,1457,1678,Tag0,unknown
1545011687185,0,73,1.6040039062500002E-5,34,40,39,163108,93562,12764,13243,5743,6149,1457,1678,Tag0,unknown
1545011687185,0,90,1.9775390625E-5,34,40,39,163108,93562,12764,13243,5743,6149,1457,1678,Tag0,unknown
1545011687186,0,64,1.40625E-5,34,40,39,163108,93562,12764,13243,5743,6149,1457,1678,Tag0,unknown
1545011687186,0,35,7.6904296875E-6,34,40,39,163108,93562,12764,13243,5743,6149,1457,1678,Tag0,unknown
1545011687186,0,50,1.0986328125E-5,34,40,39,163108,93562,12764,13243,5743,6149,1457,1678,Tag0,unknown
1545011687186,0,89,1.95556640625E-5,34,40,39,163108,93562,12764,13243,5743,6149,1457,1678,Tag0,unknown
1545011687196,0,107,2.35107421875E-5,34,40,39,163108,93562,12764,13243,5743,6149,1457,1678,Tag0,unknown
1545011687196,0,83,1.82373046875E-5,34,40,39,163108,93562,12764,13243,5743,6149,1457,1678,Tag0,unknown
1545011687196,0,48,1.0546875E-5,34,40,39,163108,93562,12764,13243,5743,6149,1457,1678,Tag0,unknown
1545011687196,0,43,9.448242187500001E-6,34,40,39,163108,93562,12764,13243,5743,6149,1457,1678,Tag0,unknown
1545011687196,0,80,1.7578125E-5,34,40,39,163108,93562,12764,13243,5743,6149,1457,1678,Tag0,unknown
1545011687196,0,99,2.1752929687500003E-5,34,40,39,163108,93562,12764,13243,5743,6149,1457,1678,Tag0,unknown
1545011687196,0,73,1.6040039062500002E-5,34,40,39,163108,93562,12764,13243,5743,6149,1457,1678,Tag0,unknown
1545011687196,0,39,8.5693359375E-6,34,40,39,163108,93562,12764,13243,5743,6149,1457,1678,Tag0,unknown
1545011687196,0,49,1.07666015625E-5,34,40,39,163108,93562,12764,13243,5743,6149,1457,1678,Tag0,unknown
1545011687213,0,99,2.1752929687500003E-5,34,40,39,163108,93562,12764,13243,5743,6149,1457,1678,Tag0,unknown
1545011687213,0,-124,-2.724609375E-5,34,40,39,163108,93562,12764,13243,5743,6149,1457,1678,Tag0,unknown
1545011687215,0,99,2.1752929687500003E-5,34,40,39,163108,93562,12764,13243,5743,6149,1457,1678,Tag0,unknown
1545011687215,0,39,8.5693359375E-6,34,40,39,163108,93562,12764,13243,5743,6149,1457,1678,Tag0,unknown
1545011687215,0,27,5.9326171875000005E-6,34,40,39,163108,93562,12764,13243,5743,6149,1457,1678,Tag0,unknown
1545011687215,0,75,1.64794921875E-5,34,40,39,163108,93562,12764,13243,5743,6149,1457,1678,Tag0,unknown
1545011687215,0,112,2.4609375E-5,34,40,39,163108,93562,12764,13243,5743,6149,1457,1678,Tag0,unknown
1545011687215,0,85,1.86767578125E-5,34,40,39,163108,93562,12764,13243,5743,6149,1457,1678,Tag0,unknown
1545011687215,0,36,7.91015625E-6,34,40,39,163108,93562,12764,13243,5743,6149,1457,1678,Tag0,unknown
1545011687229,0,20,4.39453125E-6,34,40,39,163108,93562,12764,13243,5743,6149,1457,1678,Tag0,unknown
1545011687229,0,57,1.2524414062500001E-5,34,40,39,163108,93562,12764,13243,5743,6149,1457,1678,Tag0,unknown
1545011687229,0,97,2.13134765625E-5,34,40,39,163108,93562,12764,13243,5743,6149,1457,1678,Tag0,unknown
1545011687229,0,90,1.9775390625E-5,34,40,39,163108,93562,12764,13243,5743,6149,1457,1678,Tag0,unknown
1545011687229,0,59,1.29638671875E-5,34,40,39,163108,93562,12764,13243,5743,6149,1457,1678,Tag0,unknown
1545011687230,0,42,9.228515625000002E-6,34,40,39,163108,93562,12764,13243,5743,6149,1457,1678,Tag0,unknown
1545011687230,0,58,1.2744140625E-5,34,40,39,163108,93562,12764,13243,5743,6149,1457,1678,Tag0,unknown
1545011687245,0,80,1.7578125E-5,34,40,39,163108,93562,12764,13243,5743,6149,1457,1678,Tag0,unknown
1545011687246,0,72,1.58203125E-5,34,40,39,163108,93562,12764,13243,5743,6149,1457,1678,Tag0,unknown
1545011687247,0,40,8.7890625E-6,34,40,39,163108,93562,12764,13243,5743,6149,1457,1678,Tag0,unknown
1545011687286,0,19,4.1748046875E-6,34,40,39,163108,93562,12764,13243,5743,6149,1457,1678,Tag0,unknown
1545011687295,0,36,7.91015625E-6,34,40,39,163108,93562,12764,13243,5743,6149,1457,1678,Tag0,unknown
1545011687295,0,71,1.56005859375E-5,34,40,39,163108,93562,12764,13243,5743,6149,1457,1678,Tag0,unknown
1545011687295,0,68,1.4941406250000001E-5,34,40,39,163108,93562,12764,13243,5743,6149,1457,1678,Tag0,unknown
1545011687295,0,25,5.4931640625E-6,34,40,39,163108,93562,12764,13243,5743,6149,1457,1678,Tag0,unknown
1545011687296,0,-257,-5.64697265625E-5,34,40,39,163108,93562,12764,13243,5743,6149,1457,1678,Tag0,unknown
1545011687296,0,17,3.7353515625000003E-6,34,40,39,163108,93562,12764,13243,5743,6149,1457,1678,Tag0,unknown
1545011687296,0,50,1.0986328125E-5,34,40,39,163108,93562,12764,13243,5743,6149,1457,1678,Tag0,unknown
1545011687296,0,48,1.0546875E-5,34,40,39,163108,93562,12764,13243,5743,6149,1457,1678,Tag0,unknown
1545011687296,0,9,1.9775390625E-6,34,40,39,163108,93562,12764,13243,5743,6149,1457,1678,Tag0,unknown
1545011687296,0,-280,-6.15234375E-5,34,40,39,163108,93562,12764,13243,5743,6149,1457,1678,Tag0,unknown
1545011687313,0,-275,-6.04248046875E-5,34,40,39,163108,93562,12764,13243,5743,6149,1457,1678,Tag0,unknown
1545011687313,0,18,3.955078125E-6,34,40,39,163108,93562,12764,13243,5743,6149,1457,1678,Tag0,unknown
1545011687313,0,26,5.712890625E-6,34,40,39,163108,93562,12764,13243,5743,6149,1457,1678,Tag0,unknown
1545011687313,0,-259,-5.69091796875E-5,34,40,39,163108,93562,12764,13243,5743,6149,1457,1678,Tag0,unknown
1545011687313,0,-293,-6.43798828125E-5,34,40,39,163108,93562,12764,13243,5743,6149,1457,1678,Tag0,unknown
1545011687313,0,-294,-6.4599609375E-5,34,40,39,163108,93562,12764,13243,5743,6149,1457,1678,Tag0,unknown
1545011687313,0,-258,-5.6689453125000004E-5,34,40,39,163108,93562,12764,13243,5743,6149,1457,1678,Tag0,unknown
1545011687314,0,17,3.7353515625000003E-6,34,40,39,163108,93562,12764,13243,5743,6149,1457,1678,Tag0,unknown
1545011687314,0,-266,-5.8447265625E-5,34,40,39,163108,93562,12764,13243,5743,6149,1457,1678,Tag0,unknown
1545011687314,0,-310,-6.8115234375E-5,34,40,39,163108,93562,12764,13243,5743,6149,1457,1678,Tag0,unknown
1545011687314,0,-330,-7.2509765625E-5,34,40,39,163108,93562,12764,13243,5743,6149,1457,1678,Tag0,unknown
1545011687314,0,-308,-6.767578125E-5,34,40,39,163108,93562,12764,13243,5743,6149,1457,1678,Tag0,unknown
1545011687314,0,-279,-6.13037109375E-5,34,40,39,163108,93562,12764,13243,5743,6149,1457,1678,Tag0,unknown
1545011687314,0,-300,-6.591796875E-5,34,40,39,163108,93562,12764,13243,5743,6149,1457,1678,Tag0,unknown
1545011687314,0,-342,-7.5146484375E-5,34,40,39,163108,93562,12764,13243,5743,6149,1457,1678,Tag0,unknown
1545011687314,0,-353,-7.75634765625E-5,34,40,39,163108,93562,12764,13243,5743,6149,1457,1678,Tag0,unknown
1545011687314,0,-316,-6.943359375000001E-5,34,40,39,163108,93562,12764,13243,5743,6149,1457,1678,Tag0,unknown
1545011687314,0,-282,-6.1962890625E-5,34,40,39,163108,93562,12764,13243,5743,6149,1457,1678,Tag0,unknown
1545011687315,0,-296,-6.50390625E-5,34,40,39,163108,93562,12764,13243,5743,6149,1457,1678,Tag0,unknown
1545011687315,0,-327,-7.18505859375E-5,34,40,39,163108,93562,12764,13243,5743,6149,1457,1678,Tag0,unknown
1545011687315,0,-329,-7.229003906250001E-5,34,40,39,163108,93562,12764,13243,5743,6149,1457,1678,Tag0,unknown
1545011687350,0,-278,-6.108398437500001E-5,34,40,39,163108,93562,12764,13243,5743,6149,1457,1678,Tag0,unknown
1545011687363,0,25,5.4931640625E-6,34,40,39,163108,93562,12764,13243,5743,6149,1457,1678,Tag0,unknown
1545011687364,0,17,3.7353515625000003E-6,34,40,39,163108,93562,12764,13243,5743,6149,1457,1678,Tag0,unknown
1545011687367,0,-278,-6.108398437500001E-5,34,40,39,163108,93562,12764,13243,5743,6149,1457,1678,Tag0,unknown
1545011687367,0,-292,-6.416015625000001E-5,34,40,39,163108,93562,12764,13243,5743,6149,1457,1678,Tag0,unknown
1545011687367,0,6,1.318359375E-6,34,40,39,163108,93562,12764,13243,5743,6149,1457,1678,Tag0,unknown
1545011687367,0,56,1.23046875E-5,34,40,39,163108,93562,12764,13243,5743,6149,1457,1678,Tag0,unknown
1545011687368,0,43,9.448242187500001E-6,34,40,39,163108,93562,12764,13243,5743,6149,1457,1678,Tag0,unknown
1545011687368,0,-263,-5.7788085937500005E-5,34,40,39,163108,93562,12764,13243,5743,6149,1457,1678,Tag0,unknown
1545011687368,0,-299,-6.56982421875E-5,34,40,39,163108,93562,12764,13243,5743,6149,1457,1678,Tag0,unknown
1545011687368,0,-286,-6.2841796875E-5,34,40,39,163108,93562,12764,13243,5743,6149,1457,1678,Tag0,unknown
1545011687368,0,7,1.5380859375E-6,34,40,39,163108,93562,12764,13243,5743,6149,1457,1678,Tag0,unknown
1545011687368,0,9,1.9775390625E-6,34,40,39,163108,93562,12764,13243,5743,6149,1457,1678,Tag0,unknown
1545011687369,0,-275,-6.04248046875E-5,34,40,39,163108,93562,12764,13243,5743,6149,1457,1678,Tag0,unknown
1545011687369,0,-299,-6.56982421875E-5,34,40,39,163108,93562,12764,13243,5743,6149,1457,1678,Tag0,unknown
1545011687369,0,-284,-6.240234375E-5,34,40,39,163108,93562,12764,13243,5743,6149,1457,1678,Tag0,unknown
1545011687369,0,10,2.197265625E-6,34,40,39,163108,93562,12764,13243,5743,6149,1457,1678,Tag0,unknown
1545011687369,0,19,4.1748046875E-6,34,40,39,163108,93562,12764,13243,5743,6149,1457,1678,Tag0,unknown
1545011687370,0,-267,-5.86669921875E-5,34,40,39,163108,93562,12764,13243,5743,6149,1457,1678,Tag0,unknown
1545011687370,0,-298,-6.5478515625E-5,34,40,39,163108,93562,12764,13243,5743,6149,1457,1678,Tag0,unknown
1545011687370,0,-295,-6.48193359375E-5,34,40,39,163108,93562,12764,13243,5743,6149,1457,1678,Tag0,unknown
1545011687370,0,-263,-5.7788085937500005E-5,34,40,39,163108,93562,12764,13243,5743,6149,1457,1678,Tag0,unknown
1545011687370,0,2,4.39453125E-7,34,40,39,163108,93562,12764,13243,5743,6149,1457,1678,Tag0,unknown
1545011687371,0,-282,-6.1962890625E-5,34,40,39,163108,93562,12764,13243,5743,6149,1457,1678,Tag0,unknown
1545011687371,0,-313,-6.87744140625E-5,34,40,39,163108,93562,12764,13243,5743,6149,1457,1678,Tag0,unknown
1545011687371,0,-306,-6.723632812500001E-5,34,40,39,163108,93562,12764,13243,5743,6149,1457,1678,Tag0,unknown
1545011687371,0,-269,-5.9106445312499996E-5,34,40,39,163108,93562,12764,13243,5743,6149,1457,1678,Tag0,unknown
1545011687371,0,-266,-5.8447265625E-5,34,40,39,163108,93562,12764,13243,5743,6149,1457,1678,Tag0,unknown
1545011687372,0,-297,-6.525878906250001E-5,34,40,39,163108,93562,12764,13243,5743,6149,1457,1678,Tag0,unknown
1545011687411,0,-326,-7.163085937500001E-5,34,40,39,163108,93562,12764,13243,5743,6149,1457,1678,Tag0,unknown
1545011687411,0,-321,-7.053222656250001E-5,34,40,39,163108,93562,12764,13243,5743,6149,1457,1678,Tag0,unknown
1545011687430,0,-283,-6.218261718750001E-5,34,40,39,163108,93562,12764,13243,5743,6149,1457,1678,Tag0,unknown
1545011687430,0,-263,-5.7788085937500005E-5,34,40,39,163108,93562,12764,13243,5743,6149,1457,1678,Tag0,unknown
1545011687431,0,-280,-6.15234375E-5,34,40,39,163108,93562,12764,13243,5743,6149,1457,1678,Tag0,unknown
1545011687431,0,-296,-6.50390625E-5,34,40,39,163108,93562,12764,13243,5743,6149,1457,1678,Tag0,unknown
1545011687431,0,-280,-6.15234375E-5,34,40,39,163108,93562,12764,13243,5743,6149,1457,1678,Tag0,unknown
1545011687431,0,12,2.63671875E-6,34,40,39,163108,93562,12764,13243,5743,6149,1457,1678,Tag0,unknown
1545011687431,0,36,7.91015625E-6,34,40,39,163108,93562,12764,13243,5743,6149,1457,1678,Tag0,unknown
1545011687432,0,17,3.7353515625000003E-6,34,40,39,163108,93562,12764,13243,5743,6149,1457,1678,Tag0,unknown
1545011687432,0,-268,-5.8886718750000006E-5,34,40,39,163108,93562,12764,13243,5743,6149,1457,1678,Tag0,unknown
1545011687432,0,-267,-5.86669921875E-5,34,40,39,163108,93562,12764,13243,5743,6149,1457,1678,Tag0,unknown
1545011687432,0,24,5.2734375E-6,34,40,39,163108,93562,12764,13243,5743,6149,1457,1678,Tag0,unknown
1545011687432,0,44,9.66796875E-6,34,40,39,163108,93562,12764,13243,5743,6149,1457,1678,Tag0,unknown
1545011687433,0,5,1.0986328125E-6,34,40,39,163108,93562,12764,13243,5743,6149,1457,1678,Tag0,unknown
1545011687433,0,-308,-6.767578125E-5,34,40,39,163108,93562,12764,13243,5743,6149,1457,1678,Tag0,unknown
1545011687433,0,-312,-6.85546875E-5,34,40,39,163108,93562,12764,13243,5743,6149,1457,1678,Tag0,unknown
1545011687433,0,-260,-5.712890625E-5,34,40,39,163108,93562,12764,13243,5743,6149,1457,1678,Tag0,unknown
1545011687433,0,41,9.008789062499999E-6,34,40,39,163108,93562,12764,13243,5743,6149,1457,1678,Tag0,unknown
1545011687433,0,34,7.4707031250000005E-6,34,40,39,163108,93562,12764,13243,5743,6149,1457,1678,Tag0,unknown
1545011687434,0,-269,-5.9106445312499996E-5,34,40,39,163108,93562,12764,13243,5743,6149,1457,1678,Tag0,unknown
1545011687434,0,-296,-6.50390625E-5,34,40,39,163108,93562,12764,13243,5743,6149,1457,1678,Tag0,unknown
1545011687434,0,-267,-5.86669921875E-5,34,40,39,163108,93562,12764,13243,5743,6149,1457,1678,Tag0,unknown
1545011687435,0,23,5.0537109375E-6,34,40,39,163108,93562,12764,13243,5743,6149,1457,1678,Tag0,unknown
1545011687435,0,8,1.7578125E-6,34,40,39,163108,93562,12764,13243,5743,6149,1457,1678,Tag0,unknown
1545011687435,0,-295,-6.48193359375E-5,34,40,39,163108,93562,12764,13243,5743,6149,1457,1678,Tag0,unknown
1545011687436,0,-301,-6.613769531250001E-5,34,40,39,163108,93562,12764,13243,5743,6149,1457,1678,Tag0,unknown
1545011687436,0,-264,-5.80078125E-5,34,40,39,163108,93562,12764,13243,5743,6149,1457,1678,Tag0,unknown
1545011687436,0,26,5.712890625E-6,34,40,39,163108,93562,12764,13243,5743,6149,1457,1678,Tag0,unknown
1545011687436,0,20,4.39453125E-6,34,40,39,163108,93562,12764,13243,5743,6149,1457,1678,Tag0,unknown
1545011687436,0,-266,-5.8447265625E-5,34,40,39,163108,93562,12764,13243,5743,6149,1457,1678,Tag0,unknown
1545011687437,0,-279,-6.13037109375E-5,34,40,39,163108,93562,12764,13243,5743,6149,1457,1678,Tag0,unknown
1545011687437,0,9,1.9775390625E-6,34,40,39,163108,93562,12764,13243,5743,6149,1457,1678,Tag0,unknown
1545011687437,0,60,1.318359375E-5,34,40,39,163108,93562,12764,13243,5743,6149,1457,1678,Tag0,unknown
1545011687437,0,83,1.82373046875E-5,34,40,39,163108,93562,12764,13243,5743,6149,1457,1678,Tag0,unknown
1545011687474,0,57,1.2524414062500001E-5,34,40,39,163108,93562,12764,13243,5743,6149,1457,1678,Tag0,unknown
1545011687480,0,24,5.2734375E-6,34,40,39,163108,93562,12764,13243,5743,6149,1457,1678,Tag0,unknown
1545011687480,0,32,7.03125E-6,34,40,39,163108,93562,12764,13243,5743,6149,1457,1678,Tag0,unknown
1545011687480,0,70,1.5380859375E-5,34,40,39,163108,93562,12764,13243,5743,6149,1457,1678,Tag0,unknown
1545011687497,0,83,1.82373046875E-5,34,40,39,163108,93562,12764,13243,5743,6149,1457,1678,Tag0,unknown
1545011687498,0,43,9.448242187500001E-6,34,40,39,163108,93562,12764,13243,5743,6149,1457,1678,Tag0,unknown
1545011687498,0,0,0.0,34,40,39,163108,93562,12764,13243,5743,6149,1457,1678,Tag0,unknown
1545011687498,0,-259,-5.69091796875E-5,34,40,39,163108,93562,12764,13243,5743,6149,1457,1678,Tag0,unknown
1545011687498,0,28,6.15234375E-6,34,40,39,163108,93562,12764,13243,5743,6149,1457,1678,Tag0,unknown
1545011687498,0,42,9.228515625000002E-6,34,40,39,163108,93562,12764,13243,5743,6149,1457,1678,Tag0,unknown
1545011687499,0,17,3.7353515625000003E-6,34,40,39,163108,93562,12764,13243,5743,6149,1457,1678,Tag0,unknown
1545011687499,0,-268,-5.8886718750000006E-5,34,40,39,163108,93562,12764,13243,5743,6149,1457,1678,Tag0,unknown
1545011687499,0,-266,-5.8447265625E-5,34,40,39,163108,93562,12764,13243,5743,6149,1457,1678,Tag0,unknown
1545011687499,0,18,3.955078125E-6,34,40,39,163108,93562,12764,13243,5743,6149,1457,1678,Tag0,unknown
1545011687499,0,39,8.5693359375E-6,34,40,39,163108,93562,12764,13243,5743,6149,1457,1678,Tag0,unknown
1545011687500,0,12,2.63671875E-6,34,40,39,163108,93562,12764,13243,5743,6149,1457,1678,Tag0,unknown
1545011687500,0,-275,-6.04248046875E-5,34,40,39,163108,93562,12764,13243,5743,6149,1457,1678,Tag0,unknown
1545011687500,0,-261,-5.73486328125E-5,34,40,39,163108,93562,12764,13243,5743,6149,1457,1678,Tag0,unknown
1545011687500,0,49,1.07666015625E-5,34,40,39,163108,93562,12764,13243,5743,6149,1457,1678,Tag0,unknown
1545011687500,0,86,1.8896484375000003E-5,34,40,39,163108,93562,12764,13243,5743,6149,1457,1678,Tag0,unknown
1545011687501,0,61,1.34033203125E-5,34,40,39,163108,93562,12764,13243,5743,6149,1457,1678,Tag0,unknown
1545011687501,0,11,2.4169921875E-6,34,40,39,163108,93562,12764,13243,5743,6149,1457,1678,Tag0,unknown
1545011687501,0,1,2.197265625E-7,34,40,39,163108,93562,12764,13243,5743,6149,1457,1678,Tag0,unknown
1545011687501,0,42,9.228515625000002E-6,34,40,39,163108,93562,12764,13243,5743,6149,1457,1678,Tag0,unknown
1545011687501,0,86,1.8896484375000003E-5,34,40,39,163108,93562,12764,13243,5743,6149,1457,1678,Tag0,unknown
1545011687501,0,73,1.6040039062500002E-5,34,40,39,163108,93562,12764,13243,5743,6149,1457,1678,Tag0,unknown
1545011687502,0,32,7.03125E-6,34,40,39,163108,93562,12764,13243,5743,6149,1457,1678,Tag0,unknown
1545011687502,0,11,2.4169921875E-6,34,40,39,163108,93562,12764,13243,5743,6149,1457,1678,Tag0,unknown
1545011687502,0,41,9.008789062499999E-6,34,40,39,163108,93562,12764,13243,5743,6149,1457,1678,Tag0,unknown
1545011687502,0,72,1.58203125E-5,34,40,39,163108,93562,12764,13243,5743,6149,1457,1678,Tag0,unknown
1545011687502,0,70,1.5380859375E-5,34,40,39,163108,93562,12764,13243,5743,6149,1457,1678,Tag0,unknown
1545011687503,0,41,9.008789062499999E-6,34,40,39,163108,93562,12764,13243,5743,6149,1457,1678,Tag0,unknown
1545011687503,0,24,5.2734375E-6,34,40,39,163108,93562,12764,13243,5743,6149,1457,1678,Tag0,unknown
1545011687551,0,51,1.1206054687499999E-5,34,40,39,163108,93562,12764,13243,5743,6149,1457,1678,Tag0,unknown
1545011687551,0,88,1.93359375E-5,34,40,39,163108,93562,12764,13243,5743,6149,1457,1678,Tag0,unknown
1545011687551,0,92,2.021484375E-5,34,40,39,163108,93562,12764,13243,5743,6149,1457,1678,Tag0,unknown
1545011687551,0,71,1.56005859375E-5,34,40,39,163108,93562,12764,13243,5743,6149,1457,1678,Tag0,unknown
1545011687554,0,59,1.29638671875E-5,34,40,39,163108,93562,12764,13243,5743,6149,1457,1678,Tag0,unknown
1545011687554,0,83,1.82373046875E-5,34,40,39,163108,93562,12764,13243,5743,6149,1457,1678,Tag0,unknown
1545011687555,0,119,2.6147460937500004E-5,34,40,39,163108,93562,12764,13243,5743,6149,1457,1678,Tag0,unknown
1545011687555,0,113,2.48291015625E-5,34,40,39,163108,93562,12764,13243,5743,6149,1457,1678,Tag0,unknown
1545011687555,0,54,1.1865234375000001E-5,34,40,39,163108,93562,12764,13243,5743,6149,1457,1678,Tag0,unknown
1545011687555,0,17,3.7353515625000003E-6,34,40,39,163108,93562,12764,13243,5743,6149,1457,1678,Tag0,unknown
1545011687555,0,22,4.833984375E-6,34,40,39,163108,93562,12764,13243,5743,6149,1457,1678,Tag0,unknown
1545011687555,0,56,1.23046875E-5,34,40,39,163108,93562,12764,13243,5743,6149,1457,1678,Tag0,unknown
1545011687556,0,68,1.4941406250000001E-5,34,40,39,163108,93562,12764,13243,5743,6149,1457,1678,Tag0,unknown
1545011687556,0,44,9.66796875E-6,34,40,39,163108,93562,12764,13243,5743,6149,1457,1678,Tag0,unknown
1545011687556,0,16,3.515625E-6,34,40,39,163108,93562,12764,13243,5743,6149,1457,1678,Tag0,unknown
1545011687557,0,16,3.515625E-6,34,40,39,163108,93562,12764,13243,5743,6149,1457,1678,Tag0,unknown
1545011687557,0,55,1.20849609375E-5,34,40,39,163108,93562,12764,13243,5743,6149,1457,1678,Tag0,unknown
1545011687557,0,73,1.6040039062500002E-5,34,40,39,163108,93562,12764,13243,5743,6149,1457,1678,Tag0,unknown
1545011687557,0,36,7.91015625E-6,34,40,39,163108,93562,12764,13243,5743,6149,1457,1678,Tag0,unknown
1545011687557,0,-257,-5.64697265625E-5,34,40,39,163108,93562,12764,13243,5743,6149,1457,1678,Tag0,unknown
1545011687558,0,4,8.7890625E-7,34,40,39,163108,93562,12764,13243,5743,6149,1457,1678,Tag0,unknown
1545011687558,0,49,1.07666015625E-5,34,40,39,163108,93562,12764,13243,5743,6149,1457,1678,Tag0,unknown
1545011687558,0,72,1.58203125E-5,34,40,39,163108,93562,12764,13243,5743,6149,1457,1678,Tag0,unknown
1545011687558,0,49,1.07666015625E-5,34,40,39,163108,93562,12764,13243,5743,6149,1457,1678,Tag0,unknown
1545011687558,0,22,4.833984375E-6,34,40,39,163108,93562,12764,13243,5743,6149,1457,1678,Tag0,unknown
1545011687559,0,38,8.349609375E-6,34,40,39,163108,93562,12764,13243,5743,6149,1457,1678,Tag0,unknown
1545011687559,0,85,1.86767578125E-5,34,40,39,163108,93562,12764,13243,5743,6149,1457,1678,Tag0,unknown
1545011687559,0,96,2.109375E-5,34,40,39,163108,93562,12764,13243,5743,6149,1457,1678,Tag0,unknown
1545011687559,0,56,1.23046875E-5,34,40,39,163108,93562,12764,13243,5743,6149,1457,1678,Tag0,unknown
1545011687559,0,13,2.8564453125E-6,34,40,39,163108,93562,12764,13243,5743,6149,1457,1678,Tag0,unknown
1545011687559,0,2,4.39453125E-7,34,40,39,163108,93562,12764,13243,5743,6149,1457,1678,Tag0,unknown
1545011687563,0,24,5.2734375E-6,34,40,39,163108,93562,12764,13243,5743,6149,1457,1678,Tag0,unknown
1545011687563,0,57,1.2524414062500001E-5,34,40,39,163108,93562,12764,13243,5743,6149,1457,1678,Tag0,unknown
1545011687593,0,56,1.23046875E-5,34,40,39,163108,93562,12764,13243,5743,6149,1457,1678,Tag0,unknown
1545011687597,0,32,7.03125E-6,34,40,39,163108,93562,12764,13243,5743,6149,1457,1678,Tag0,unknown
1545011687612,0,26,5.712890625E-6,34,40,39,163108,93562,12764,13243,5743,6149,1457,1678,Tag0,unknown
1545011687613,0,71,1.56005859375E-5,34,40,39,163108,93562,12764,13243,5743,6149,1457,1678,Tag0,unknown
1545011687613,0,120,2.63671875E-5,34,40,39,163108,93562,12764,13243,5743,6149,1457,1678,Tag0,unknown
1545011687613,0,107,2.35107421875E-5,34,40,39,163108,93562,12764,13243,5743,6149,1457,1678,Tag0,unknown
1545011687613,0,53,1.1645507812500002E-5,34,40,39,163108,93562,12764,13243,5743,6149,1457,1678,Tag0,unknown
1545011687614,0,19,4.1748046875E-6,34,40,39,163108,93562,12764,13243,5743,6149,1457,1678,Tag0,unknown
1545011687614,0,36,7.91015625E-6,34,40,39,163108,93562,12764,13243,5743,6149,1457,1678,Tag0,unknown
1545011687614,0,71,1.56005859375E-5,34,40,39,163108,93562,12764,13243,5743,6149,1457,1678,Tag0,unknown
1545011687617,0,60,1.318359375E-5,34,40,39,163108,93562,12764,13243,5743,6149,1457,1678,Tag0,unknown
1545011687617,0,10,2.197265625E-6,34,40,39,163108,93562,12764,13243,5743,6149,1457,1678,Tag0,unknown
1545011687617,0,-269,-5.9106445312499996E-5,34,40,39,163108,93562,12764,13243,5743,6149,1457,1678,Tag0,unknown
1545011687617,0,5,1.0986328125E-6,34,40,39,163108,93562,12764,13243,5743,6149,1457,1678,Tag0,unknown
1545011687618,0,44,9.66796875E-6,34,40,39,163108,93562,12764,13243,5743,6149,1457,1678,Tag0,unknown
1545011687618,0,49,1.07666015625E-5,34,40,39,163108,93562,12764,13243,5743,6149,1457,1678,Tag0,unknown
1545011687618,0,20,4.39453125E-6,34,40,39,163108,93562,12764,13243,5743,6149,1457,1678,Tag0,unknown
1545011687619,0,5,1.0986328125E-6,34,40,39,163108,93562,12764,13243,5743,6149,1457,1678,Tag0,unknown
1545011687619,0,21,4.614257812500001E-6,34,40,39,163108,93562,12764,13243,5743,6149,1457,1678,Tag0,unknown
1545011687619,0,54,1.1865234375000001E-5,34,40,39,163108,93562,12764,13243,5743,6149,1457,1678,Tag0,unknown
1545011687619,0,54,1.1865234375000001E-5,34,40,39,163108,93562,12764,13243,5743,6149,1457,1678,Tag0,unknown
1545011687619,0,27,5.9326171875000005E-6,34,40,39,163108,93562,12764,13243,5743,6149,1457,1678,Tag0,unknown
1545011687620,0,8,1.7578125E-6,34,40,39,163108,93562,12764,13243,5743,6149,1457,1678,Tag0,unknown
1545011687620,0,17,3.7353515625000003E-6,34,40,39,163108,93562,12764,13243,5743,6149,1457,1678,Tag0,unknown
1545011687620,0,54,1.1865234375000001E-5,34,40,39,163108,93562,12764,13243,5743,6149,1457,1678,Tag0,unknown
1545011687620,0,77,1.69189453125E-5,34,40,39,163108,93562,12764,13243,5743,6149,1457,1678,Tag0,unknown
1545011687620,0,57,1.2524414062500001E-5,34,40,39,163108,93562,12764,13243,5743,6149,1457,1678,Tag0,unknown
1545011687620,0,25,5.4931640625E-6,34,40,39,163108,93562,12764,13243,5743,6149,1457,1678,Tag0,unknown
1545011687621,0,20,4.39453125E-6,34,40,39,163108,93562,12764,13243,5743,6149,1457,1678,Tag0,unknown
1545011687621,0,56,1.23046875E-5,34,40,39,163108,93562,12764,13243,5743,6149,1457,1678,Tag0,unknown
1545011687621,0,85,1.86767578125E-5,34,40,39,163108,93562,12764,13243,5743,6149,1457,1678,Tag0,unknown
1545011687621,0,69,1.51611328125E-5,34,40,39,163108,93562,12764,13243,5743,6149,1457,1678,Tag0,unknown
1545011687629,0,41,9.008789062499999E-6,34,40,39,163108,93562,12764,13243,5743,6149,1457,1678,Tag0,unknown
1545011687630,0,41,9.008789062499999E-6,34,40,39,163108,93562,12764,13243,5743,6149,1457,1678,Tag0,unknown
1545011687630,0,88,1.93359375E-5,34,40,39,163108,93562,12764,13243,5743,6149,1457,1678,Tag0,unknown
1545011687630,0,-128,-2.8125E-5,34,40,39,163108,93562,12764,13243,5743,6149,1457,1678,Tag0,unknown
1545011687630,0,120,2.63671875E-5,34,40,39,163108,93562,12764,13243,5743,6149,1457,1678,Tag0,unknown
1545011687631,0,90,1.9775390625E-5,34,40,39,163108,93562,12764,13243,5743,6149,1457,1678,Tag0,unknown
1545011687631,0,84,1.8457031250000004E-5,34,40,39,163108,93562,12764,13243,5743,6149,1457,1678,Tag0,unknown
1545011687631,0,115,2.52685546875E-5,34,40,39,163108,93562,12764,13243,5743,6149,1457,1678,Tag0,unknown
1545011687631,0,-110,-2.4169921875E-5,34,40,39,163108,93562,12764,13243,5743,6149,1457,1678,Tag0,unknown
1545011687647,0,-118,-2.5927734375E-5,34,40,39,163108,93562,12764,13243,5743,6149,1457,1678,Tag0,unknown
1545011687647,0,116,2.548828125E-5,34,40,39,163108,93562,12764,13243,5743,6149,1457,1678,Tag0,unknown
1545011687648,0,107,2.35107421875E-5,34,40,39,163108,93562,12764,13243,5743,6149,1457,1678,Tag0,unknown
1545011687648,0,-119,-2.6147460937500004E-5,34,40,39,163108,93562,12764,13243,5743,6149,1457,1678,Tag0,unknown
1545011687648,0,-86,-1.8896484375000003E-5,34,40,39,163108,93562,12764,13243,5743,6149,1457,1678,Tag0,unknown
1545011687648,0,-95,-2.08740234375E-5,34,40,39,163108,93562,12764,13243,5743,6149,1457,1678,Tag0,unknown
1545011687649,0,113,2.48291015625E-5,34,40,39,163108,93562,12764,13243,5743,6149,1457,1678,Tag0,unknown
1545011687649,0,81,1.77978515625E-5,34,40,39,163108,93562,12764,13243,5743,6149,1457,1678,Tag0,unknown
1545011687663,0,88,1.93359375E-5,34,40,39,163108,93562,12764,13243,5743,6149,1457,1678,Tag0,unknown
1545011687664,0,118,2.5927734375E-5,34,40,39,163108,93562,12764,13243,5743,6149,1457,1678,Tag0,unknown
1545011687664,0,124,2.724609375E-5,34,40,39,163108,93562,12764,13243,5743,6149,1457,1678,Tag0,unknown
1545011687665,0,107,2.35107421875E-5,34,40,39,163108,93562,12764,13243,5743,6149,1457,1678,Tag0,unknown
1545011687665,0,97,2.13134765625E-5,34,40,39,163108,93562,12764,13243,5743,6149,1457,1678,Tag0,unknown
1545011687665,0,117,2.5708007812499998E-5,34,40,39,163108,93562,12764,13243,5743,6149,1457,1678,Tag0,unknown
1545011687665,0,-104,-2.28515625E-5,34,40,39,163108,93562,12764,13243,5743,6149,1457,1678,Tag0,unknown
1545011687666,0,-106,-2.3291015625000003E-5,34,40,39,163108,93562,12764,13243,5743,6149,1457,1678,Tag0,unknown
1545011687682,0,117,2.5708007812499998E-5,34,40,39,163108,93562,12764,13243,5743,6149,1457,1678,Tag0,unknown
1545011687682,0,99,2.1752929687500003E-5,34,40,39,163108,93562,12764,13243,5743,6149,1457,1678,Tag0,unknown
1545011687683,0,121,2.6586914062500003E-5,34,40,39,163108,93562,12764,13243,5743,6149,1457,1678,Tag0,unknown
1545011687683,0,-96,-2.109375E-5,34,40,39,163108,93562,12764,13243,5743,6149,1457,1678,Tag0,unknown
1545011687683,0,-99,-2.1752929687500003E-5,34,40,39,163108,93562,12764,13243,5743,6149,1457,1678,Tag0,unknown
1545011687684,0,124,2.724609375E-5,34,40,39,163108,93562,12764,13243,5743,6149,1457,1678,Tag0,unknown
1545011687684,0,109,2.39501953125E-5,34,40,39,163108,93562,12764,13243,5743,6149,1457,1678,Tag0,unknown
1545011687684,0,-121,-2.6586914062500003E-5,34,40,39,163108,93562,12764,13243,5743,6149,1457,1678,Tag0,unknown
1545011687684,0,-78,-1.7138671875E-5,34,40,39,163108,93562,12764,13243,5743,6149,1457,1678,Tag0,unknown
1545011687685,0,-74,-1.6259765625E-5,34,40,39,163108,93562,12764,13243,5743,6149,1457,1678,Tag0,unknown
1545011687685,0,-122,-2.6806640625E-5,34,40,39,163108,93562,12764,13243,5743,6149,1457,1678,Tag0,unknown
1545011687696,0,89,1.95556640625E-5,34,40,39,163108,93562,12764,13243,5743,6149,1457,1678,Tag0,unknown
1545011687696,0,93,2.04345703125E-5,34,40,39,163108,93562,12764,13243,5743,6149,1457,1678,Tag0,unknown
1545011687696,0,-122,-2.6806640625E-5,34,40,39,163108,93562,12764,13243,5743,6149,1457,1678,Tag0,unknown
1545011687696,0,-108,-2.3730468750000002E-5,34,40,39,163108,93562,12764,13243,5743,6149,1457,1678,Tag0,unknown
1545011687696,0,123,2.70263671875E-5,34,40,39,163108,93562,12764,13243,5743,6149,1457,1678,Tag0,unknown
1545011687696,0,103,2.26318359375E-5,34,40,39,163108,93562,12764,13243,5743,6149,1457,1678,Tag0,unknown
1545011687697,0,115,2.52685546875E-5,34,40,39,163108,93562,12764,13243,5743,6149,1457,1678,Tag0,unknown
1545011687714,0,-109,-2.39501953125E-5,34,40,39,163108,93562,12764,13243,5743,6149,1457,1678,Tag0,unknown
1545011687717,0,-107,-2.35107421875E-5,34,40,39,163108,93562,12764,13243,5743,6149,1457,1678,Tag0,unknown
1545011687717,0,118,2.5927734375E-5,34,40,39,163108,93562,12764,13243,5743,6149,1457,1678,Tag0,unknown
1545011687717,0,85,1.86767578125E-5,34,40,39,163108,93562,12764,13243,5743,6149,1457,1678,Tag0,unknown
1545011687718,0,90,1.9775390625E-5,34,40,39,163108,93562,12764,13243,5743,6149,1457,1678,Tag0,unknown
1545011687718,0,-128,-2.8125E-5,34,40,39,163108,93562,12764,13243,5743,6149,1457,1678,Tag0,unknown
1545011687718,0,-119,-2.6147460937500004E-5,34,40,39,163108,93562,12764,13243,5743,6149,1457,1678,Tag0,unknown
1545011687718,0,102,2.2412109374999998E-5,34,40,39,163108,93562,12764,13243,5743,6149,1457,1678,Tag0,unknown
1545011687729,0,66,1.4501953125E-5,34,40,39,163108,93562,12764,13243,5743,6149,1457,1678,Tag0,unknown
1545011687729,0,67,1.4721679687500002E-5,34,40,39,163108,93562,12764,13243,5743,6149,1457,1678,Tag0,unknown
1545011687730,0,112,2.4609375E-5,34,40,39,163108,93562,12764,13243,5743,6149,1457,1678,Tag0,unknown
1545011687730,0,-107,-2.35107421875E-5,34,40,39,163108,93562,12764,13243,5743,6149,1457,1678,Tag0,unknown
1545011687731,0,-125,-2.74658203125E-5,34,40,39,163108,93562,12764,13243,5743,6149,1457,1678,Tag0,unknown
1545011687731,0,91,1.99951171875E-5,34,40,39,163108,93562,12764,13243,5743,6149,1457,1678,Tag0,unknown
1545011687731,0,80,1.7578125E-5,34,40,39,163108,93562,12764,13243,5743,6149,1457,1678,Tag0,unknown
1545011687731,0,103,2.26318359375E-5,34,40,39,163108,93562,12764,13243,5743,6149,1457,1678,Tag0,unknown
1545011687747,0,-122,-2.6806640625E-5,34,40,39,163108,93562,12764,13243,5743,6149,1457,1678,Tag0,unknown
1545011687747,0,-125,-2.74658203125E-5,34,40,39,163108,93562,12764,13243,5743,6149,1457,1678,Tag0,unknown
1545011687748,0,97,2.13134765625E-5,34,40,39,163108,93562,12764,13243,5743,6149,1457,1678,Tag0,unknown
1545011687748,0,71,1.56005859375E-5,34,40,39,163108,93562,12764,13243,5743,6149,1457,1678,Tag0,unknown
1545011687748,0,88,1.93359375E-5,34,40,39,163108,93562,12764,13243,5743,6149,1457,1678,Tag0,unknown
1545011687748,0,115,2.52685546875E-5,34,40,39,163108,93562,12764,13243,5743,6149,1457,1678,Tag0,unknown
1545011687749,0,98,2.1533203125E-5,34,40,39,163108,93562,12764,13243,5743,6149,1457,1678,Tag0,unknown
1545011687749,0,48,1.0546875E-5,34,40,39,163108,93562,12764,13243,5743,6149,1457,1678,Tag0,unknown
1545011687749,0,19,4.1748046875E-6,34,40,39,163108,93562,12764,13243,5743,6149,1457,1678,Tag0,unknown
1545011687763,0,42,9.228515625000002E-6,34,40,39,163108,93562,12764,13243,5743,6149,1457,1678,Tag0,unknown
1545011687764,0,97,2.13134765625E-5,34,40,39,163108,93562,12764,13243,5743,6149,1457,1678,Tag0,unknown
1545011687764,0,109,2.39501953125E-5,34,40,39,163108,93562,12764,13243,5743,6149,1457,1678,Tag0,unknown
1545011687764,0,81,1.77978515625E-5,34,40,39,163108,93562,12764,13243,5743,6149,1457,1678,Tag0,unknown
1545011687764,0,43,9.448242187500001E-6,34,40,39,163108,93562,12764,13243,5743,6149,1457,1678,Tag0,unknown
1545011687764,0,54,1.1865234375000001E-5,34,40,39,163108,93562,12764,13243,5743,6149,1457,1678,Tag0,unknown
1545011687765,0,97,2.13134765625E-5,34,40,39,163108,93562,12764,13243,5743,6149,1457,1678,Tag0,unknown
1545011687765,0,115,2.52685546875E-5,34,40,39,163108,93562,12764,13243,5743,6149,1457,1678,Tag0,unknown
1545011687765,0,83,1.82373046875E-5,34,40,39,163108,93562,12764,13243,5743,6149,1457,1678,Tag0,unknown
1545011687779,0,51,1.1206054687499999E-5,34,40,39,163108,93562,12764,13243,5743,6149,1457,1678,Tag0,unknown
1545011687779,0,57,1.2524414062500001E-5,34,40,39,163108,93562,12764,13243,5743,6149,1457,1678,Tag0,unknown
1545011687780,0,97,2.13134765625E-5,34,40,39,163108,93562,12764,13243,5743,6149,1457,1678,Tag0,unknown
1545011687780,0,118,2.5927734375E-5,34,40,39,163108,93562,12764,13243,5743,6149,1457,1678,Tag0,unknown
1545011687780,0,98,2.1533203125E-5,34,40,39,163108,93562,12764,13243,5743,6149,1457,1678,Tag0,unknown
1545011687780,0,72,1.58203125E-5,34,40,39,163108,93562,12764,13243,5743,6149,1457,1678,Tag0,unknown
1545011687780,0,82,1.8017578124999998E-5,34,40,39,163108,93562,12764,13243,5743,6149,1457,1678,Tag0,unknown
1545011687795,0,109,2.39501953125E-5,34,40,39,163108,93562,12764,13243,5743,6149,1457,1678,Tag0,unknown
1545011687795,0,120,2.63671875E-5,34,40,39,163108,93562,12764,13243,5743,6149,1457,1678,Tag0,unknown
1545011687795,0,91,1.99951171875E-5,34,40,39,163108,93562,12764,13243,5743,6149,1457,1678,Tag0,unknown
1545011687796,0,55,1.20849609375E-5,34,40,39,163108,93562,12764,13243,5743,6149,1457,1678,Tag0,unknown
1545011687796,0,42,9.228515625000002E-6,34,40,39,163108,93562,12764,13243,5743,6149,1457,1678,Tag0,unknown
1545011687796,0,64,1.40625E-5,34,40,39,163108,93562,12764,13243,5743,6149,1457,1678,Tag0,unknown
1545011687796,0,80,1.7578125E-5,34,40,39,163108,93562,12764,13243,5743,6149,1457,1678,Tag0,unknown
1545011687796,0,51,1.1206054687499999E-5,34,40,39,163108,93562,12764,13243,5743,6149,1457,1678,Tag0,unknown
1545011687796,0,-263,-5.7788085937500005E-5,34,40,39,163108,93562,12764,13243,5743,6149,1457,1678,Tag0,unknown
1545011687812,0,-293,-6.43798828125E-5,34,40,39,163108,93562,12764,13243,5743,6149,1457,1678,Tag0,unknown
1545011687812,0,4,8.7890625E-7,34,40,39,163108,93562,12764,13243,5743,6149,1457,1678,Tag0,unknown
1545011687813,0,83,1.82373046875E-5,34,40,39,163108,93562,12764,13243,5743,6149,1457,1678,Tag0,unknown
1545011687813,0,121,2.6586914062500003E-5,34,40,39,163108,93562,12764,13243,5743,6149,1457,1678,Tag0,unknown
1545011687813,0,99,2.1752929687500003E-5,34,40,39,163108,93562,12764,13243,5743,6149,1457,1678,Tag0,unknown
1545011687813,0,71,1.56005859375E-5,34,40,39,163108,93562,12764,13243,5743,6149,1457,1678,Tag0,unknown
1545011687814,0,86,1.8896484375000003E-5,34,40,39,163108,93562,12764,13243,5743,6149,1457,1678,Tag0,unknown
1545011687814,0,121,2.6586914062500003E-5,34,40,39,163108,93562,12764,13243,5743,6149,1457,1678,Tag0,unknown
1545011687829,0,122,2.6806640625E-5,34,40,39,163108,93562,12764,13243,5743,6149,1457,1678,Tag0,unknown
1545011687829,0,107,2.35107421875E-5,34,40,39,163108,93562,12764,13243,5743,6149,1457,1678,Tag0,unknown
1545011687829,0,106,2.3291015625000003E-5,34,40,39,163108,93562,12764,13243,5743,6149,1457,1678,Tag0,unknown
1545011687829,0,-124,-2.724609375E-5,34,40,39,163108,93562,12764,13243,5743,6149,1457,1678,Tag0,unknown
1545011687830,0,-112,-2.4609375E-5,34,40,39,163108,93562,12764,13243,5743,6149,1457,1678,Tag0,unknown
1545011687830,0,101,2.2192382812500002E-5,34,40,39,163108,93562,12764,13243,5743,6149,1457,1678,Tag0,unknown
1545011687830,0,35,7.6904296875E-6,34,40,39,163108,93562,12764,13243,5743,6149,1457,1678,Tag0,unknown
1545011687830,0,-259,-5.69091796875E-5,34,40,39,163108,93562,12764,13243,5743,6149,1457,1678,Tag0,unknown
1545011687830,0,16,3.515625E-6,34,40,39,163108,93562,12764,13243,5743,6149,1457,1678,Tag0,unknown
1545011687831,0,67,1.4721679687500002E-5,34,40,39,163108,93562,12764,13243,5743,6149,1457,1678,Tag0,unknown
1545011687846,0,82,1.8017578124999998E-5,34,40,39,163108,93562,12764,13243,5743,6149,1457,1678,Tag0,unknown
1545011687846,0,57,1.2524414062500001E-5,34,40,39,163108,93562,12764,13243,5743,6149,1457,1678,Tag0,unknown
1545011687846,0,36,7.91015625E-6,34,40,39,163108,93562,12764,13243,5743,6149,1457,1678,Tag0,unknown
1545011687846,0,54,1.1865234375000001E-5,34,40,39,163108,93562,12764,13243,5743,6149,1457,1678,Tag0,unknown
1545011687846,0,88,1.93359375E-5,34,40,39,163108,93562,12764,13243,5743,6149,1457,1678,Tag0,unknown
1545011687846,0,90,1.9775390625E-5,34,40,39,163108,93562,12764,13243,5743,6149,1457,1678,Tag0,unknown
1545011687847,0,59,1.29638671875E-5,34,40,39,163108,93562,12764,13243,5743,6149,1457,1678,Tag0,unknown
1545011687847,0,34,7.4707031250000005E-6,34,40,39,163108,93562,12764,13243,5743,6149,1457,1678,Tag0,unknown
1545011687863,0,48,1.0546875E-5,34,40,39,163108,93562,12764,13243,5743,6149,1457,1678,Tag0,unknown
1545011687863,0,81,1.77978515625E-5,34,40,39,163108,93562,12764,13243,5743,6149,1457,1678,Tag0,unknown
1545011687863,0,85,1.86767578125E-5,34,40,39,163108,93562,12764,13243,5743,6149,1457,1678,Tag0,unknown
1545011687864,0,43,9.448242187500001E-6,34,40,39,163108,93562,12764,13243,5743,6149,1457,1678,Tag0,unknown
1545011687864,0,10,2.197265625E-6,34,40,39,163108,93562,12764,13243,5743,6149,1457,1678,Tag0,unknown
1545011687864,0,23,5.0537109375E-6,34,40,39,163108,93562,12764,13243,5743,6149,1457,1678,Tag0,unknown
1545011687864,0,66,1.4501953125E-5,34,40,39,163108,93562,12764,13243,5743,6149,1457,1678,Tag0,unknown
1545011687864,0,89,1.95556640625E-5,34,40,39,163108,93562,12764,13243,5743,6149,1457,1678,Tag0,unknown
1545011687865,0,64,1.40625E-5,34,40,39,163108,93562,12764,13243,5743,6149,1457,1678,Tag0,unknown
1545011687879,0,19,4.1748046875E-6,34,40,39,163108,93562,12764,13243,5743,6149,1457,1678,Tag0,unknown
1545011687879,0,19,4.1748046875E-6,34,40,39,163108,93562,12764,13243,5743,6149,1457,1678,Tag0,unknown
1545011687879,0,60,1.318359375E-5,34,40,39,163108,93562,12764,13243,5743,6149,1457,1678,Tag0,unknown
1545011687880,0,88,1.93359375E-5,34,40,39,163108,93562,12764,13243,5743,6149,1457,1678,Tag0,unknown
1545011687880,0,73,1.6040039062500002E-5,34,40,39,163108,93562,12764,13243,5743,6149,1457,1678,Tag0,unknown
1545011687880,0,51,1.1206054687499999E-5,34,40,39,163108,93562,12764,13243,5743,6149,1457,1678,Tag0,unknown
1545011687880,0,53,1.1645507812500002E-5,34,40,39,163108,93562,12764,13243,5743,6149,1457,1678,Tag0,unknown
1545011687880,0,93,2.04345703125E-5,34,40,39,163108,93562,12764,13243,5743,6149,1457,1678,Tag0,unknown
1545011687896,0,-124,-2.724609375E-5,34,40,39,163108,93562,12764,13243,5743,6149,1457,1678,Tag0,unknown
1545011687897,0,119,2.6147460937500004E-5,34,40,39,163108,93562,12764,13243,5743,6149,1457,1678,Tag0,unknown
1545011687897,0,73,1.6040039062500002E-5,34,40,39,163108,93562,12764,13243,5743,6149,1457,1678,Tag0,unknown
1545011687897,0,53,1.1645507812500002E-5,34,40,39,163108,93562,12764,13243,5743,6149,1457,1678,Tag0,unknown
1545011687897,0,88,1.93359375E-5,34,40,39,163108,93562,12764,13243,5743,6149,1457,1678,Tag0,unknown
1545011687898,0,-128,-2.8125E-5,34,40,39,163108,93562,12764,13243,5743,6149,1457,1678,Tag0,unknown
1545011687898,0,117,2.5708007812499998E-5,34,40,39,163108,93562,12764,13243,5743,6149,1457,1678,Tag0,unknown
1545011687898,0,68,1.4941406250000001E-5,34,40,39,163108,93562,12764,13243,5743,6149,1457,1678,Tag0,unknown
1545011687912,0,33,7.2509765625E-6,34,40,39,163108,93562,12764,13243,5743,6149,1457,1678,Tag0,unknown
1545011687912,0,56,1.23046875E-5,34,40,39,163108,93562,12764,13243,5743,6149,1457,1678,Tag0,unknown
1545011687913,0,102,2.2412109374999998E-5,34,40,39,163108,93562,12764,13243,5743,6149,1457,1678,Tag0,unknown
1545011687913,0,97,2.13134765625E-5,34,40,39,163108,93562,12764,13243,5743,6149,1457,1678,Tag0,unknown
1545011687913,0,58,1.2744140625E-5,34,40,39,163108,93562,12764,13243,5743,6149,1457,1678,Tag0,unknown
1545011687914,0,39,8.5693359375E-6,34,40,39,163108,93562,12764,13243,5743,6149,1457,1678,Tag0,unknown
1545011687914,0,59,1.29638671875E-5,34,40,39,163108,93562,12764,13243,5743,6149,1457,1678,Tag0,unknown
1545011687914,0,87,1.91162109375E-5,34,40,39,163108,93562,12764,13243,5743,6149,1457,1678,Tag0,unknown
1545011687914,0,74,1.6259765625E-5,34,40,39,163108,93562,12764,13243,5743,6149,1457,1678,Tag0,unknown
1545011687929,0,28,6.15234375E-6,34,40,39,163108,93562,12764,13243,5743,6149,1457,1678,Tag0,unknown
1545011687930,0,3,6.591796875E-7,34,40,39,163108,93562,12764,13243,5743,6149,1457,1678,Tag0,unknown
1545011687930,0,35,7.6904296875E-6,34,40,39,163108,93562,12764,13243,5743,6149,1457,1678,Tag0,unknown
1545011687931,0,90,1.9775390625E-5,34,40,39,163108,93562,12764,13243,5743,6149,1457,1678,Tag0,unknown
1545011687931,0,97,2.13134765625E-5,34,40,39,163108,93562,12764,13243,5743,6149,1457,1678,Tag0,unknown
1545011687933,0,55,1.20849609375E-5,34,40,39,163108,93562,12764,13243,5743,6149,1457,1678,Tag0,unknown
1545011687933,0,23,5.0537109375E-6,34,40,39,163108,93562,12764,13243,5743,6149,1457,1678,Tag0,unknown
1545011687934,0,37,8.1298828125E-6,34,40,39,163108,93562,12764,13243,5743,6149,1457,1678,Tag0,unknown
1545011687934,0,70,1.5380859375E-5,34,40,39,163108,93562,12764,13243,5743,6149,1457,1678,Tag0,unknown
1545011687980,0,69,1.51611328125E-5,34,40,39,163108,93562,12764,13243,5743,6149,1457,1678,Tag0,unknown
1545011687996,0,36,7.91015625E-6,34,40,39,163108,93562,12764,13243,5743,6149,1457,1678,Tag0,unknown
1545011687996,0,9,1.9775390625E-6,34,40,39,163108,93562,12764,13243,5743,6149,1457,1678,Tag0,unknown
1545011687996,0,25,5.4931640625E-6,34,40,39,163108,93562,12764,13243,5743,6149,1457,1678,Tag0,unknown
1545011688051,0,68,1.4941406250000001E-5,34,40,39,163108,93562,12764,13243,5743,6149,1457,1678,Tag0,unknown
1545011688063,0,75,1.64794921875E-5,34,40,39,163108,93562,12764,13243,5743,6149,1457,1678,Tag0,unknown
1545011688064,0,33,7.2509765625E-6,34,40,39,163108,93562,12764,13243,5743,6149,1457,1678,Tag0,unknown
1545011688064,0,-270,-5.9326171875E-5,34,40,39,163108,93562,12764,13243,5743,6149,1457,1678,Tag0,unknown
1545011688064,0,-279,-6.13037109375E-5,34,40,39,163108,93562,12764,13243,5743,6149,1457,1678,Tag0,unknown
1545011688064,0,4,8.7890625E-7,34,40,39,163108,93562,12764,13243,5743,6149,1457,1678,Tag0,unknown
1545011688064,0,7,1.5380859375E-6,34,40,39,163108,93562,12764,13243,5743,6149,1457,1678,Tag0,unknown
1545011688065,0,-289,-6.35009765625E-5,34,40,39,163108,93562,12764,13243,5743,6149,1457,1678,Tag0,unknown
1545011688065,0,-328,-7.207031249999999E-5,34,40,39,163108,93562,12764,13243,5743,6149,1457,1678,Tag0,unknown
1545011688065,0,-330,-7.2509765625E-5,34,40,39,163108,93562,12764,13243,5743,6149,1457,1678,Tag0,unknown
1545011688065,0,-295,-6.48193359375E-5,34,40,39,163108,93562,12764,13243,5743,6149,1457,1678,Tag0,unknown
1545011688065,0,-267,-5.86669921875E-5,34,40,39,163108,93562,12764,13243,5743,6149,1457,1678,Tag0,unknown
1545011688066,0,-291,-6.39404296875E-5,34,40,39,163108,93562,12764,13243,5743,6149,1457,1678,Tag0,unknown
1545011688066,0,-332,-7.294921875E-5,34,40,39,163108,93562,12764,13243,5743,6149,1457,1678,Tag0,unknown
1545011688066,0,-338,-7.426757812499999E-5,34,40,39,163108,93562,12764,13243,5743,6149,1457,1678,Tag0,unknown
1545011688067,0,-295,-6.48193359375E-5,34,40,39,163108,93562,12764,13243,5743,6149,1457,1678,Tag0,unknown
1545011688067,0,-258,-5.6689453125000004E-5,34,40,39,163108,93562,12764,13243,5743,6149,1457,1678,Tag0,unknown
1545011688067,0,-268,-5.8886718750000006E-5,34,40,39,163108,93562,12764,13243,5743,6149,1457,1678,Tag0,unknown
1545011688068,0,-309,-6.78955078125E-5,34,40,39,163108,93562,12764,13243,5743,6149,1457,1678,Tag0,unknown
1545011688068,0,-322,-7.0751953125E-5,34,40,39,163108,93562,12764,13243,5743,6149,1457,1678,Tag0,unknown
1545011688068,0,-285,-6.26220703125E-5,34,40,39,163108,93562,12764,13243,5743,6149,1457,1678,Tag0,unknown
1545011688068,0,-259,-5.69091796875E-5,34,40,39,163108,93562,12764,13243,5743,6149,1457,1678,Tag0,unknown
1545011688068,0,-289,-6.35009765625E-5,34,40,39,163108,93562,12764,13243,5743,6149,1457,1678,Tag0,unknown
1545011688068,0,-342,-7.5146484375E-5,34,40,39,163108,93562,12764,13243,5743,6149,1457,1678,Tag0,unknown
1545011688069,0,-361,-7.93212890625E-5,34,40,39,163108,93562,12764,13243,5743,6149,1457,1678,Tag0,unknown
1545011688069,0,-328,-7.207031249999999E-5,34,40,39,163108,93562,12764,13243,5743,6149,1457,1678,Tag0,unknown
1545011688069,0,-285,-6.26220703125E-5,34,40,39,163108,93562,12764,13243,5743,6149,1457,1678,Tag0,unknown
1545011688073,0,-289,-6.35009765625E-5,41,47,39,161727,16746644,7677,13092,10514,5375,3968,2219,Tag0,unknown
1545011688073,0,-324,-7.119140625E-5,41,47,39,161727,16746644,7677,13092,10514,5375,3968,2219,Tag0,unknown
1545011688073,0,-341,-7.492675781250002E-5,41,47,39,161727,16746644,7677,13092,10514,5375,3968,2219,Tag0,unknown
1545011688073,0,-312,-6.85546875E-5,41,47,39,161727,16746644,7677,13092,10514,5375,3968,2219,Tag0,unknown
1545011688073,0,-266,-5.8447265625E-5,41,47,39,161727,16746644,7677,13092,10514,5375,3968,2219,Tag0,unknown
1545011688073,0,-262,-5.7568359375E-5,41,47,39,161727,16746644,7677,13092,10514,5375,3968,2219,Tag0,unknown
1545011688074,0,-295,-6.48193359375E-5,41,47,39,161727,16746644,7677,13092,10514,5375,3968,2219,Tag0,unknown
1545011688074,0,-317,-6.96533203125E-5,41,47,39,161727,16746644,7677,13092,10514,5375,3968,2219,Tag0,unknown
1545011688074,0,-291,-6.39404296875E-5,41,47,39,161727,16746644,7677,13092,10514,5375,3968,2219,Tag0,unknown
1545011688074,0,4,8.7890625E-7,41,47,39,161727,16746644,7677,13092,10514,5375,3968,2219,Tag0,unknown
1545011688074,0,1,2.197265625E-7,41,47,39,161727,16746644,7677,13092,10514,5375,3968,2219,Tag0,unknown
1545011688074,0,-297,-6.525878906250001E-5,41,47,39,161727,16746644,7677,13092,10514,5375,3968,2219,Tag0,unknown
1545011688075,0,-325,-7.14111328125E-5,41,47,39,161727,16746644,7677,13092,10514,5375,3968,2219,Tag0,unknown
1545011688075,0,-306,-6.723632812500001E-5,41,47,39,161727,16746644,7677,13092,10514,5375,3968,2219,Tag0,unknown
1545011688075,0,-261,-5.73486328125E-5,41,47,39,161727,16746644,7677,13092,10514,5375,3968,2219,Tag0,unknown
1545011688075,0,-257,-5.64697265625E-5,41,47,39,161727,16746644,7677,13092,10514,5375,3968,2219,Tag0,unknown
1545011688075,0,-299,-6.56982421875E-5,41,47,39,161727,16746644,7677,13092,10514,5375,3968,2219,Tag0,unknown
1545011688075,0,-337,-7.40478515625E-5,41,47,39,161727,16746644,7677,13092,10514,5375,3968,2219,Tag0,unknown
1545011688075,0,-325,-7.14111328125E-5,41,47,39,161727,16746644,7677,13092,10514,5375,3968,2219,Tag0,unknown
1545011688080,0,-285,-6.26220703125E-5,41,47,39,161727,16746644,7677,13092,10514,5375,3968,2219,Tag0,unknown
1545011688080,0,-269,-5.9106445312499996E-5,41,47,39,161727,16746644,7677,13092,10514,5375,3968,2219,Tag0,unknown
1545011688080,0,-305,-6.70166015625E-5,41,47,39,161727,16746644,7677,13092,10514,5375,3968,2219,Tag0,unknown
1545011688080,0,-349,-7.668457031250001E-5,41,47,39,161727,16746644,7677,13092,10514,5375,3968,2219,Tag0,unknown
1545011688080,0,-354,-7.778320312500001E-5,41,47,39,161727,16746644,7677,13092,10514,5375,3968,2219,Tag0,unknown
1545011688080,0,-313,-6.87744140625E-5,41,47,39,161727,16746644,7677,13092,10514,5375,3968,2219,Tag0,unknown
1545011688080,0,-292,-6.416015625000001E-5,41,47,39,161727,16746644,7677,13092,10514,5375,3968,2219,Tag0,unknown
1545011688080,0,-308,-6.767578125E-5,41,47,39,161727,16746644,7677,13092,10514,5375,3968,2219,Tag0,unknown
1545011688081,0,-329,-7.229003906250001E-5,41,47,39,161727,16746644,7677,13092,10514,5375,3968,2219,Tag0,unknown
1545011688081,0,-331,-7.272949218750001E-5,41,47,39,161727,16746644,7677,13092,10514,5375,3968,2219,Tag0,unknown
1545011688081,0,-313,-6.87744140625E-5,41,47,39,161727,16746644,7677,13092,10514,5375,3968,2219,Tag0,unknown
1545011688081,0,-296,-6.50390625E-5,41,47,39,161727,16746644,7677,13092,10514,5375,3968,2219,Tag0,unknown
1545011688081,0,-308,-6.767578125E-5,41,47,39,161727,16746644,7677,13092,10514,5375,3968,2219,Tag0,unknown
1545011688081,0,-330,-7.2509765625E-5,41,47,39,161727,16746644,7677,13092,10514,5375,3968,2219,Tag0,unknown
1545011688081,0,-325,-7.14111328125E-5,41,47,39,161727,16746644,7677,13092,10514,5375,3968,2219,Tag0,unknown
1545011688081,0,-278,-6.108398437500001E-5,41,47,39,161727,16746644,7677,13092,10514,5375,3968,2219,Tag0,unknown
1545011688113,0,17,3.7353515625000003E-6,41,47,39,161727,16746644,7677,13092,10514,5375,3968,2219,Tag0,unknown
1545011688113,0,7,1.5380859375E-6,41,47,39,161727,16746644,7677,13092,10514,5375,3968,2219,Tag0,unknown
1545011688129,0,-270,-5.9326171875E-5,41,47,39,161727,16746644,7677,13092,10514,5375,3968,2219,Tag0,unknown
1545011688129,0,-268,-5.8886718750000006E-5,41,47,39,161727,16746644,7677,13092,10514,5375,3968,2219,Tag0,unknown
1545011688129,0,29,6.3720703125E-6,41,47,39,161727,16746644,7677,13092,10514,5375,3968,2219,Tag0,unknown
1545011688129,0,85,1.86767578125E-5,41,47,39,161727,16746644,7677,13092,10514,5375,3968,2219,Tag0,unknown
1545011688129,0,89,1.95556640625E-5,41,47,39,161727,16746644,7677,13092,10514,5375,3968,2219,Tag0,unknown
1545011688129,0,52,1.142578125E-5,41,47,39,161727,16746644,7677,13092,10514,5375,3968,2219,Tag0,unknown
1545011688129,0,27,5.9326171875000005E-6,41,47,39,161727,16746644,7677,13092,10514,5375,3968,2219,Tag0,unknown
1545011688130,0,50,1.0986328125E-5,41,47,39,161727,16746644,7677,13092,10514,5375,3968,2219,Tag0,unknown
1545011688130,0,85,1.86767578125E-5,41,47,39,161727,16746644,7677,13092,10514,5375,3968,2219,Tag0,unknown
1545011688130,0,83,1.82373046875E-5,41,47,39,161727,16746644,7677,13092,10514,5375,3968,2219,Tag0,unknown
1545011688130,0,40,8.7890625E-6,41,47,39,161727,16746644,7677,13092,10514,5375,3968,2219,Tag0,unknown
1545011688130,0,13,2.8564453125E-6,41,47,39,161727,16746644,7677,13092,10514,5375,3968,2219,Tag0,unknown
1545011688130,0,38,8.349609375E-6,41,47,39,161727,16746644,7677,13092,10514,5375,3968,2219,Tag0,unknown
1545011688130,0,72,1.58203125E-5,41,47,39,161727,16746644,7677,13092,10514,5375,3968,2219,Tag0,unknown
1545011688130,0,61,1.34033203125E-5,41,47,39,161727,16746644,7677,13092,10514,5375,3968,2219,Tag0,unknown
1545011688131,0,24,5.2734375E-6,41,47,39,161727,16746644,7677,13092,10514,5375,3968,2219,Tag0,unknown
1545011688131,0,-257,-5.64697265625E-5,41,47,39,161727,16746644,7677,13092,10514,5375,3968,2219,Tag0,unknown
1545011688131,0,18,3.955078125E-6,41,47,39,161727,16746644,7677,13092,10514,5375,3968,2219,Tag0,unknown
1545011688131,0,52,1.142578125E-5,41,47,39,161727,16746644,7677,13092,10514,5375,3968,2219,Tag0,unknown
1545011688131,0,49,1.07666015625E-5,41,47,39,161727,16746644,7677,13092,10514,5375,3968,2219,Tag0,unknown
1545011688131,0,10,2.197265625E-6,41,47,39,161727,16746644,7677,13092,10514,5375,3968,2219,Tag0,unknown
1545011688131,0,-273,-5.998535156250001E-5,41,47,39,161727,16746644,7677,13092,10514,5375,3968,2219,Tag0,unknown
1545011688131,0,-263,-5.7788085937500005E-5,41,47,39,161727,16746644,7677,13092,10514,5375,3968,2219,Tag0,unknown
1545011688132,0,37,8.1298828125E-6,41,47,39,161727,16746644,7677,13092,10514,5375,3968,2219,Tag0,unknown
1545011688132,0,50,1.0986328125E-5,41,47,39,161727,16746644,7677,13092,10514,5375,3968,2219,Tag0,unknown
1545011688132,0,5,1.0986328125E-6,41,47,39,161727,16746644,7677,13092,10514,5375,3968,2219,Tag0,unknown
1545011688132,0,-284,-6.240234375E-5,41,47,39,161727,16746644,7677,13092,10514,5375,3968,2219,Tag0,unknown
1545011688132,0,-274,-6.0205078124999997E-5,41,47,39,161727,16746644,7677,13092,10514,5375,3968,2219,Tag0,unknown
1545011688132,0,22,4.833984375E-6,41,47,39,161727,16746644,7677,13092,10514,5375,3968,2219,Tag0,unknown
1545011688132,0,44,9.66796875E-6,41,47,39,161727,16746644,7677,13092,10514,5375,3968,2219,Tag0,unknown
1545011688133,0,26,5.712890625E-6,41,47,39,161727,16746644,7677,13092,10514,5375,3968,2219,Tag0,unknown
1545011688161,0,0,0.0,41,47,39,161727,16746644,7677,13092,10514,5375,3968,2219,Tag0,unknown
1545011688179,0,12,2.63671875E-6,41,47,39,161727,16746644,7677,13092,10514,5375,3968,2219,Tag0,unknown
1545011688179,0,59,1.29638671875E-5,41,47,39,161727,16746644,7677,13092,10514,5375,3968,2219,Tag0,unknown
1545011688179,0,89,1.95556640625E-5,41,47,39,161727,16746644,7677,13092,10514,5375,3968,2219,Tag0,unknown
1545011688179,0,65,1.42822265625E-5,41,47,39,161727,16746644,7677,13092,10514,5375,3968,2219,Tag0,unknown
1545011688179,0,28,6.15234375E-6,41,47,39,161727,16746644,7677,13092,10514,5375,3968,2219,Tag0,unknown
1545011688179,0,33,7.2509765625E-6,41,47,39,161727,16746644,7677,13092,10514,5375,3968,2219,Tag0,unknown
1545011688179,0,73,1.6040039062500002E-5,41,47,39,161727,16746644,7677,13092,10514,5375,3968,2219,Tag0,unknown
1545011688179,0,102,2.2412109374999998E-5,41,47,39,161727,16746644,7677,13092,10514,5375,3968,2219,Tag0,unknown
1545011688180,0,84,1.8457031250000004E-5,41,47,39,161727,16746644,7677,13092,10514,5375,3968,2219,Tag0,unknown
1545011688180,0,45,9.8876953125E-6,41,47,39,161727,16746644,7677,13092,10514,5375,3968,2219,Tag0,unknown
1545011688180,0,27,5.9326171875000005E-6,41,47,39,161727,16746644,7677,13092,10514,5375,3968,2219,Tag0,unknown
1545011688180,0,45,9.8876953125E-6,41,47,39,161727,16746644,7677,13092,10514,5375,3968,2219,Tag0,unknown
1545011688180,0,81,1.77978515625E-5,41,47,39,161727,16746644,7677,13092,10514,5375,3968,2219,Tag0,unknown
1545011688180,0,76,1.669921875E-5,41,47,39,161727,16746644,7677,13092,10514,5375,3968,2219,Tag0,unknown
1545011688180,0,37,8.1298828125E-6,41,47,39,161727,16746644,7677,13092,10514,5375,3968,2219,Tag0,unknown
1545011688180,0,9,1.9775390625E-6,41,47,39,161727,16746644,7677,13092,10514,5375,3968,2219,Tag0,unknown
1545011688180,0,37,8.1298828125E-6,41,47,39,161727,16746644,7677,13092,10514,5375,3968,2219,Tag0,unknown
1545011688180,0,93,2.04345703125E-5,41,47,39,161727,16746644,7677,13092,10514,5375,3968,2219,Tag0,unknown
1545011688180,0,101,2.2192382812500002E-5,41,47,39,161727,16746644,7677,13092,10514,5375,3968,2219,Tag0,unknown
1545011688180,0,50,1.0986328125E-5,41,47,39,161727,16746644,7677,13092,10514,5375,3968,2219,Tag0,unknown
1545011688181,0,9,1.9775390625E-6,41,47,39,161727,16746644,7677,13092,10514,5375,3968,2219,Tag0,unknown
1545011688218,0,25,5.4931640625E-6,41,47,39,161727,16746644,7677,13092,10514,5375,3968,2219,Tag0,unknown
1545011688227,0,60,1.318359375E-5,41,47,39,161727,16746644,7677,13092,10514,5375,3968,2219,Tag0,unknown
1545011688227,0,54,1.1865234375000001E-5,41,47,39,161727,16746644,7677,13092,10514,5375,3968,2219,Tag0,unknown
1545011688229,0,25,5.4931640625E-6,41,47,39,161727,16746644,7677,13092,10514,5375,3968,2219,Tag0,unknown
1545011688229,0,11,2.4169921875E-6,41,47,39,161727,16746644,7677,13092,10514,5375,3968,2219,Tag0,unknown
1545011688229,0,39,8.5693359375E-6,41,47,39,161727,16746644,7677,13092,10514,5375,3968,2219,Tag0,unknown
1545011688229,0,84,1.8457031250000004E-5,41,47,39,161727,16746644,7677,13092,10514,5375,3968,2219,Tag0,unknown
1545011688229,0,91,1.99951171875E-5,41,47,39,161727,16746644,7677,13092,10514,5375,3968,2219,Tag0,unknown
1545011688229,0,66,1.4501953125E-5,41,47,39,161727,16746644,7677,13092,10514,5375,3968,2219,Tag0,unknown
1545011688229,0,51,1.1206054687499999E-5,41,47,39,161727,16746644,7677,13092,10514,5375,3968,2219,Tag0,unknown
1545011688229,0,55,1.20849609375E-5,41,47,39,161727,16746644,7677,13092,10514,5375,3968,2219,Tag0,unknown
1545011688229,0,80,1.7578125E-5,41,47,39,161727,16746644,7677,13092,10514,5375,3968,2219,Tag0,unknown
1545011688229,0,75,1.64794921875E-5,41,47,39,161727,16746644,7677,13092,10514,5375,3968,2219,Tag0,unknown
1545011688229,0,38,8.349609375E-6,41,47,39,161727,16746644,7677,13092,10514,5375,3968,2219,Tag0,unknown
1545011688229,0,3,6.591796875E-7,41,47,39,161727,16746644,7677,13092,10514,5375,3968,2219,Tag0,unknown
1545011688229,0,3,6.591796875E-7,41,47,39,161727,16746644,7677,13092,10514,5375,3968,2219,Tag0,unknown
1545011688230,0,49,1.07666015625E-5,41,47,39,161727,16746644,7677,13092,10514,5375,3968,2219,Tag0,unknown
1545011688230,0,76,1.669921875E-5,41,47,39,161727,16746644,7677,13092,10514,5375,3968,2219,Tag0,unknown
1545011688230,0,54,1.1865234375000001E-5,41,47,39,161727,16746644,7677,13092,10514,5375,3968,2219,Tag0,unknown
1545011688230,0,16,3.515625E-6,41,47,39,161727,16746644,7677,13092,10514,5375,3968,2219,Tag0,unknown
1545011688230,0,3,6.591796875E-7,41,47,39,161727,16746644,7677,13092,10514,5375,3968,2219,Tag0,unknown
1545011688230,0,25,5.4931640625E-6,41,47,39,161727,16746644,7677,13092,10514,5375,3968,2219,Tag0,unknown
1545011688230,0,45,9.8876953125E-6,41,47,39,161727,16746644,7677,13092,10514,5375,3968,2219,Tag0,unknown
1545011688230,0,21,4.614257812500001E-6,41,47,39,161727,16746644,7677,13092,10514,5375,3968,2219,Tag0,unknown
1545011688230,0,-276,-6.064453125E-5,41,47,39,161727,16746644,7677,13092,10514,5375,3968,2219,Tag0,unknown
1545011688230,0,-279,-6.13037109375E-5,41,47,39,161727,16746644,7677,13092,10514,5375,3968,2219,Tag0,unknown
1545011688230,0,26,5.712890625E-6,41,47,39,161727,16746644,7677,13092,10514,5375,3968,2219,Tag0,unknown
1545011688230,0,60,1.318359375E-5,41,47,39,161727,16746644,7677,13092,10514,5375,3968,2219,Tag0,unknown
1545011688230,0,35,7.6904296875E-6,41,47,39,161727,16746644,7677,13092,10514,5375,3968,2219,Tag0,unknown
1545011688244,0,-263,-5.7788085937500005E-5,41,47,39,161727,16746644,7677,13092,10514,5375,3968,2219,Tag0,unknown
1545011688244,0,-267,-5.86669921875E-5,41,47,39,161727,16746644,7677,13092,10514,5375,3968,2219,Tag0,unknown
1545011688244,0,28,6.15234375E-6,41,47,39,161727,16746644,7677,13092,10514,5375,3968,2219,Tag0,unknown
1545011688244,0,76,1.669921875E-5,41,47,39,161727,16746644,7677,13092,10514,5375,3968,2219,Tag0,unknown
1545011688291,0,73,1.6040039062500002E-5,41,47,39,161727,16746644,7677,13092,10514,5375,3968,2219,Tag0,unknown
1545011688291,0,32,7.03125E-6,41,47,39,161727,16746644,7677,13092,10514,5375,3968,2219,Tag0,unknown
1545011688292,0,16,3.515625E-6,41,47,39,161727,16746644,7677,13092,10514,5375,3968,2219,Tag0,unknown
1545011688292,0,45,9.8876953125E-6,41,47,39,161727,16746644,7677,13092,10514,5375,3968,2219,Tag0,unknown
1545011688292,0,81,1.77978515625E-5,41,47,39,161727,16746644,7677,13092,10514,5375,3968,2219,Tag0,unknown
1545011688312,0,69,1.51611328125E-5,41,47,39,161727,16746644,7677,13092,10514,5375,3968,2219,Tag0,unknown
1545011688312,0,35,7.6904296875E-6,41,47,39,161727,16746644,7677,13092,10514,5375,3968,2219,Tag0,unknown
1545011688312,0,9,1.9775390625E-6,41,47,39,161727,16746644,7677,13092,10514,5375,3968,2219,Tag0,unknown
1545011688312,0,19,4.1748046875E-6,41,47,39,161727,16746644,7677,13092,10514,5375,3968,2219,Tag0,unknown
1545011688312,0,48,1.0546875E-5,41,47,39,161727,16746644,7677,13092,10514,5375,3968,2219,Tag0,unknown
1545011688312,0,51,1.1206054687499999E-5,41,47,39,161727,16746644,7677,13092,10514,5375,3968,2219,Tag0,unknown
1545011688312,0,24,5.2734375E-6,41,47,39,161727,16746644,7677,13092,10514,5375,3968,2219,Tag0,unknown
1545011688312,0,4,8.7890625E-7,41,47,39,161727,16746644,7677,13092,10514,5375,3968,2219,Tag0,unknown
1545011688312,0,33,7.2509765625E-6,41,47,39,161727,16746644,7677,13092,10514,5375,3968,2219,Tag0,unknown
1545011688313,0,89,1.95556640625E-5,41,47,39,161727,16746644,7677,13092,10514,5375,3968,2219,Tag0,unknown
1545011688313,0,114,2.5048828125000003E-5,41,47,39,161727,16746644,7677,13092,10514,5375,3968,2219,Tag0,unknown
1545011688313,0,86,1.8896484375000003E-5,41,47,39,161727,16746644,7677,13092,10514,5375,3968,2219,Tag0,unknown
1545011688313,0,57,1.2524414062500001E-5,41,47,39,161727,16746644,7677,13092,10514,5375,3968,2219,Tag0,unknown
1545011688313,0,69,1.51611328125E-5,41,47,39,161727,16746644,7677,13092,10514,5375,3968,2219,Tag0,unknown
1545011688313,0,100,2.197265625E-5,41,47,39,161727,16746644,7677,13092,10514,5375,3968,2219,Tag0,unknown
1545011688313,0,98,2.1533203125E-5,41,47,39,161727,16746644,7677,13092,10514,5375,3968,2219,Tag0,unknown
1545011688314,0,65,1.42822265625E-5,41,47,39,161727,16746644,7677,13092,10514,5375,3968,2219,Tag0,unknown
1545011688314,0,41,9.008789062499999E-6,41,47,39,161727,16746644,7677,13092,10514,5375,3968,2219,Tag0,unknown
1545011688314,0,59,1.29638671875E-5,41,47,39,161727,16746644,7677,13092,10514,5375,3968,2219,Tag0,unknown
1545011688314,0,107,2.35107421875E-5,41,47,39,161727,16746644,7677,13092,10514,5375,3968,2219,Tag0,unknown
1545011688314,0,124,2.724609375E-5,41,47,39,161727,16746644,7677,13092,10514,5375,3968,2219,Tag0,unknown
1545011688314,0,82,1.8017578124999998E-5,41,47,39,161727,16746644,7677,13092,10514,5375,3968,2219,Tag0,unknown
1545011688315,0,27,5.9326171875000005E-6,41,47,39,161727,16746644,7677,13092,10514,5375,3968,2219,Tag0,unknown
1545011688315,0,26,5.712890625E-6,41,47,39,161727,16746644,7677,13092,10514,5375,3968,2219,Tag0,unknown
1545011688315,0,67,1.4721679687500002E-5,41,47,39,161727,16746644,7677,13092,10514,5375,3968,2219,Tag0,unknown
1545011688315,0,87,1.91162109375E-5,41,47,39,161727,16746644,7677,13092,10514,5375,3968,2219,Tag0,unknown
1545011688315,0,57,1.2524414062500001E-5,41,47,39,161727,16746644,7677,13092,10514,5375,3968,2219,Tag0,unknown
1545011688315,0,33,7.2509765625E-6,41,47,39,161727,16746644,7677,13092,10514,5375,3968,2219,Tag0,unknown
1545011688315,0,50,1.0986328125E-5,41,47,39,161727,16746644,7677,13092,10514,5375,3968,2219,Tag0,unknown
1545011688315,0,88,1.93359375E-5,41,47,39,161727,16746644,7677,13092,10514,5375,3968,2219,Tag0,unknown
1545011688315,0,106,2.3291015625000003E-5,41,47,39,161727,16746644,7677,13092,10514,5375,3968,2219,Tag0,unknown
1545011688315,0,88,1.93359375E-5,41,47,39,161727,16746644,7677,13092,10514,5375,3968,2219,Tag0,unknown
1545011688316,0,61,1.34033203125E-5,41,47,39,161727,16746644,7677,13092,10514,5375,3968,2219,Tag0,unknown
1545011688316,0,60,1.318359375E-5,41,47,39,161727,16746644,7677,13092,10514,5375,3968,2219,Tag0,unknown
1545011688316,0,91,1.99951171875E-5,41,47,39,161727,16746644,7677,13092,10514,5375,3968,2219,Tag0,unknown
1545011688316,0,124,2.724609375E-5,41,47,39,161727,16746644,7677,13092,10514,5375,3968,2219,Tag0,unknown
1545011688329,0,122,2.6806640625E-5,41,47,39,161727,16746644,7677,13092,10514,5375,3968,2219,Tag0,unknown
1545011688329,0,92,2.021484375E-5,41,47,39,161727,16746644,7677,13092,10514,5375,3968,2219,Tag0,unknown
1545011688329,0,86,1.8896484375000003E-5,41,47,39,161727,16746644,7677,13092,10514,5375,3968,2219,Tag0,unknown
1545011688330,0,113,2.48291015625E-5,41,47,39,161727,16746644,7677,13092,10514,5375,3968,2219,Tag0,unknown
1545011688332,0,-122,-2.6806640625E-5,41,47,39,161727,16746644,7677,13092,10514,5375,3968,2219,Tag0,unknown
1545011688332,0,-128,-2.8125E-5,41,47,39,161727,16746644,7677,13092,10514,5375,3968,2219,Tag0,unknown
1545011688333,0,100,2.197265625E-5,41,47,39,161727,16746644,7677,13092,10514,5375,3968,2219,Tag0,unknown
1545011688333,0,89,1.95556640625E-5,41,47,39,161727,16746644,7677,13092,10514,5375,3968,2219,Tag0,unknown
1545011688333,0,115,2.52685546875E-5,41,47,39,161727,16746644,7677,13092,10514,5375,3968,2219,Tag0,unknown
1545011688333,0,-106,-2.3291015625000003E-5,41,47,39,161727,16746644,7677,13092,10514,5375,3968,2219,Tag0,unknown
1545011688346,0,-108,-2.3730468750000002E-5,41,47,39,161727,16746644,7677,13092,10514,5375,3968,2219,Tag0,unknown
1545011688346,0,122,2.6806640625E-5,41,47,39,161727,16746644,7677,13092,10514,5375,3968,2219,Tag0,unknown
1545011688346,0,114,2.5048828125000003E-5,41,47,39,161727,16746644,7677,13092,10514,5375,3968,2219,Tag0,unknown
1545011688346,0,-125,-2.74658203125E-5,41,47,39,161727,16746644,7677,13092,10514,5375,3968,2219,Tag0,unknown
1545011688347,0,-104,-2.28515625E-5,41,47,39,161727,16746644,7677,13092,10514,5375,3968,2219,Tag0,unknown
1545011688347,0,-111,-2.43896484375E-5,41,47,39,161727,16746644,7677,13092,10514,5375,3968,2219,Tag0,unknown
1545011688347,0,117,2.5708007812499998E-5,41,47,39,161727,16746644,7677,13092,10514,5375,3968,2219,Tag0,unknown
1545011688347,0,97,2.13134765625E-5,41,47,39,161727,16746644,7677,13092,10514,5375,3968,2219,Tag0,unknown
1545011688362,0,106,2.3291015625000003E-5,41,47,39,161727,16746644,7677,13092,10514,5375,3968,2219,Tag0,unknown
1545011688362,0,-120,-2.63671875E-5,41,47,39,161727,16746644,7677,13092,10514,5375,3968,2219,Tag0,unknown
1545011688362,0,-109,-2.39501953125E-5,41,47,39,161727,16746644,7677,13092,10514,5375,3968,2219,Tag0,unknown
1545011688366,0,-125,-2.74658203125E-5,41,47,39,161727,16746644,7677,13092,10514,5375,3968,2219,Tag0,unknown
1545011688366,0,109,2.39501953125E-5,41,47,39,161727,16746644,7677,13092,10514,5375,3968,2219,Tag0,unknown
1545011688367,0,113,2.48291015625E-5,41,47,39,161727,16746644,7677,13092,10514,5375,3968,2219,Tag0,unknown
1545011688367,0,-118,-2.5927734375E-5,41,47,39,161727,16746644,7677,13092,10514,5375,3968,2219,Tag0,unknown
1545011688367,0,-112,-2.4609375E-5,41,47,39,161727,16746644,7677,13092,10514,5375,3968,2219,Tag0,unknown
1545011688367,0,106,2.3291015625000003E-5,41,47,39,161727,16746644,7677,13092,10514,5375,3968,2219,Tag0,unknown
1545011688378,0,67,1.4721679687500002E-5,41,47,39,161727,16746644,7677,13092,10514,5375,3968,2219,Tag0,unknown
1545011688379,0,66,1.4501953125E-5,41,47,39,161727,16746644,7677,13092,10514,5375,3968,2219,Tag0,unknown
1545011688379,0,115,2.52685546875E-5,41,47,39,161727,16746644,7677,13092,10514,5375,3968,2219,Tag0,unknown
1545011688379,0,-103,-2.26318359375E-5,41,47,39,161727,16746644,7677,13092,10514,5375,3968,2219,Tag0,unknown
1545011688379,0,-122,-2.6806640625E-5,41,47,39,161727,16746644,7677,13092,10514,5375,3968,2219,Tag0,unknown
1545011688379,0,89,1.95556640625E-5,41,47,39,161727,16746644,7677,13092,10514,5375,3968,2219,Tag0,unknown
1545011688380,0,85,1.86767578125E-5,41,47,39,161727,16746644,7677,13092,10514,5375,3968,2219,Tag0,unknown
1545011688380,0,123,2.70263671875E-5,41,47,39,161727,16746644,7677,13092,10514,5375,3968,2219,Tag0,unknown
1545011688396,0,-109,-2.39501953125E-5,41,47,39,161727,16746644,7677,13092,10514,5375,3968,2219,Tag0,unknown
1545011688396,0,118,2.5927734375E-5,41,47,39,161727,16746644,7677,13092,10514,5375,3968,2219,Tag0,unknown
1545011688397,0,72,1.58203125E-5,41,47,39,161727,16746644,7677,13092,10514,5375,3968,2219,Tag0,unknown
1545011688397,0,70,1.5380859375E-5,41,47,39,161727,16746644,7677,13092,10514,5375,3968,2219,Tag0,unknown
1545011688400,0,107,2.35107421875E-5,41,47,39,161727,16746644,7677,13092,10514,5375,3968,2219,Tag0,unknown
1545011688400,0,-119,-2.6147460937500004E-5,41,47,39,161727,16746644,7677,13092,10514,5375,3968,2219,Tag0,unknown
1545011688400,0,117,2.5708007812499998E-5,41,47,39,161727,16746644,7677,13092,10514,5375,3968,2219,Tag0,unknown
1545011688400,0,75,1.64794921875E-5,41,47,39,161727,16746644,7677,13092,10514,5375,3968,2219,Tag0,unknown
1545011688412,0,66,1.4501953125E-5,41,47,39,161727,16746644,7677,13092,10514,5375,3968,2219,Tag0,unknown
1545011688412,0,105,2.30712890625E-5,41,47,39,161727,16746644,7677,13092,10514,5375,3968,2219,Tag0,unknown
1545011688413,0,-109,-2.39501953125E-5,41,47,39,161727,16746644,7677,13092,10514,5375,3968,2219,Tag0,unknown
1545011688413,0,-121,-2.6586914062500003E-5,41,47,39,161727,16746644,7677,13092,10514,5375,3968,2219,Tag0,unknown
1545011688413,0,92,2.021484375E-5,41,47,39,161727,16746644,7677,13092,10514,5375,3968,2219,Tag0,unknown
1545011688413,0,75,1.64794921875E-5,41,47,39,161727,16746644,7677,13092,10514,5375,3968,2219,Tag0,unknown
1545011688413,0,99,2.1752929687500003E-5,41,47,39,161727,16746644,7677,13092,10514,5375,3968,2219,Tag0,unknown
1545011688414,0,-123,-2.70263671875E-5,41,47,39,161727,16746644,7677,13092,10514,5375,3968,2219,Tag0,unknown
1545011688414,0,-127,-2.79052734375E-5,41,47,39,161727,16746644,7677,13092,10514,5375,3968,2219,Tag0,unknown
1545011688428,0,99,2.1752929687500003E-5,41,47,39,161727,16746644,7677,13092,10514,5375,3968,2219,Tag0,unknown
1545011688429,0,86,1.8896484375000003E-5,41,47,39,161727,16746644,7677,13092,10514,5375,3968,2219,Tag0,unknown
1545011688429,0,105,2.30712890625E-5,41,47,39,161727,16746644,7677,13092,10514,5375,3968,2219,Tag0,unknown
1545011688429,0,-122,-2.6806640625E-5,41,47,39,161727,16746644,7677,13092,10514,5375,3968,2219,Tag0,unknown
1545011688430,0,-127,-2.79052734375E-5,41,47,39,161727,16746644,7677,13092,10514,5375,3968,2219,Tag0,unknown
1545011688430,0,87,1.91162109375E-5,41,47,39,161727,16746644,7677,13092,10514,5375,3968,2219,Tag0,unknown
1545011688430,0,58,1.2744140625E-5,41,47,39,161727,16746644,7677,13092,10514,5375,3968,2219,Tag0,unknown
1545011688430,0,84,1.8457031250000004E-5,41,47,39,161727,16746644,7677,13092,10514,5375,3968,2219,Tag0,unknown
1545011688431,0,-123,-2.70263671875E-5,41,47,39,161727,16746644,7677,13092,10514,5375,3968,2219,Tag0,unknown
1545011688446,0,-119,-2.6147460937500004E-5,41,47,39,161727,16746644,7677,13092,10514,5375,3968,2219,Tag0,unknown
1545011688446,0,92,2.021484375E-5,41,47,39,161727,16746644,7677,13092,10514,5375,3968,2219,Tag0,unknown
1545011688446,0,57,1.2524414062500001E-5,41,47,39,161727,16746644,7677,13092,10514,5375,3968,2219,Tag0,unknown
1545011688447,0,71,1.56005859375E-5,41,47,39,161727,16746644,7677,13092,10514,5375,3968,2219,Tag0,unknown
1545011688447,0,124,2.724609375E-5,41,47,39,161727,16746644,7677,13092,10514,5375,3968,2219,Tag0,unknown
1545011688447,0,-107,-2.35107421875E-5,41,47,39,161727,16746644,7677,13092,10514,5375,3968,2219,Tag0,unknown
1545011688447,0,117,2.5708007812499998E-5,41,47,39,161727,16746644,7677,13092,10514,5375,3968,2219,Tag0,unknown
1545011688448,0,77,1.69189453125E-5,41,47,39,161727,16746644,7677,13092,10514,5375,3968,2219,Tag0,unknown
1545011688462,0,75,1.64794921875E-5,41,47,39,161727,16746644,7677,13092,10514,5375,3968,2219,Tag0,unknown
1545011688462,0,107,2.35107421875E-5,41,47,39,161727,16746644,7677,13092,10514,5375,3968,2219,Tag0,unknown
1545011688463,0,123,2.70263671875E-5,41,47,39,161727,16746644,7677,13092,10514,5375,3968,2219,Tag0,unknown
1545011688463,0,92,2.021484375E-5,41,47,39,161727,16746644,7677,13092,10514,5375,3968,2219,Tag0,unknown
1545011688463,0,53,1.1645507812500002E-5,41,47,39,161727,16746644,7677,13092,10514,5375,3968,2219,Tag0,unknown
1545011688463,0,57,1.2524414062500001E-5,41,47,39,161727,16746644,7677,13092,10514,5375,3968,2219,Tag0,unknown
1545011688463,0,100,2.197265625E-5,41,47,39,161727,16746644,7677,13092,10514,5375,3968,2219,Tag0,unknown
1545011688464,0,120,2.63671875E-5,41,47,39,161727,16746644,7677,13092,10514,5375,3968,2219,Tag0,unknown
1545011688465,0,91,1.99951171875E-5,41,47,39,161727,16746644,7677,13092,10514,5375,3968,2219,Tag0,unknown
1545011688479,0,51,1.1206054687499999E-5,41,47,39,161727,16746644,7677,13092,10514,5375,3968,2219,Tag0,unknown
1545011688479,0,35,7.6904296875E-6,41,47,39,161727,16746644,7677,13092,10514,5375,3968,2219,Tag0,unknown
1545011688479,0,55,1.20849609375E-5,41,47,39,161727,16746644,7677,13092,10514,5375,3968,2219,Tag0,unknown
1545011688480,0,70,1.5380859375E-5,41,47,39,161727,16746644,7677,13092,10514,5375,3968,2219,Tag0,unknown
1545011688480,0,52,1.142578125E-5,41,47,39,161727,16746644,7677,13092,10514,5375,3968,2219,Tag0,unknown
1545011688480,0,20,4.39453125E-6,41,47,39,161727,16746644,7677,13092,10514,5375,3968,2219,Tag0,unknown
1545011688480,0,17,3.7353515625000003E-6,41,47,39,161727,16746644,7677,13092,10514,5375,3968,2219,Tag0,unknown
1545011688480,0,59,1.29638671875E-5,41,47,39,161727,16746644,7677,13092,10514,5375,3968,2219,Tag0,unknown
1545011688498,0,104,2.28515625E-5,41,47,39,161727,16746644,7677,13092,10514,5375,3968,2219,Tag0,unknown
1545011688499,0,97,2.13134765625E-5,41,47,39,161727,16746644,7677,13092,10514,5375,3968,2219,Tag0,unknown
1545011688499,0,59,1.29638671875E-5,41,47,39,161727,16746644,7677,13092,10514,5375,3968,2219,Tag0,unknown
1545011688499,0,50,1.0986328125E-5,41,47,39,161727,16746644,7677,13092,10514,5375,3968,2219,Tag0,unknown
1545011688499,0,83,1.82373046875E-5,41,47,39,161727,16746644,7677,13092,10514,5375,3968,2219,Tag0,unknown
1545011688499,0,118,2.5927734375E-5,41,47,39,161727,16746644,7677,13092,10514,5375,3968,2219,Tag0,unknown
1545011688500,0,104,2.28515625E-5,41,47,39,161727,16746644,7677,13092,10514,5375,3968,2219,Tag0,unknown
1545011688500,0,74,1.6259765625E-5,41,47,39,161727,16746644,7677,13092,10514,5375,3968,2219,Tag0,unknown
1545011688512,0,73,1.6040039062500002E-5,41,47,39,161727,16746644,7677,13092,10514,5375,3968,2219,Tag0,unknown
1545011688512,0,106,2.3291015625000003E-5,41,47,39,161727,16746644,7677,13092,10514,5375,3968,2219,Tag0,unknown
1545011688513,0,-118,-2.5927734375E-5,41,47,39,161727,16746644,7677,13092,10514,5375,3968,2219,Tag0,unknown
1545011688513,0,-127,-2.79052734375E-5,41,47,39,161727,16746644,7677,13092,10514,5375,3968,2219,Tag0,unknown
1545011688513,0,91,1.99951171875E-5,41,47,39,161727,16746644,7677,13092,10514,5375,3968,2219,Tag0,unknown
1545011688513,0,71,1.56005859375E-5,41,47,39,161727,16746644,7677,13092,10514,5375,3968,2219,Tag0,unknown
1545011688514,0,84,1.8457031250000004E-5,41,47,39,161727,16746644,7677,13092,10514,5375,3968,2219,Tag0,unknown
1545011688514,0,116,2.548828125E-5,41,47,39,161727,16746644,7677,13092,10514,5375,3968,2219,Tag0,unknown
1545011688514,0,112,2.4609375E-5,41,47,39,161727,16746644,7677,13092,10514,5375,3968,2219,Tag0,unknown
1545011688529,0,77,1.69189453125E-5,41,47,39,161727,16746644,7677,13092,10514,5375,3968,2219,Tag0,unknown
1545011688529,0,68,1.4941406250000001E-5,41,47,39,161727,16746644,7677,13092,10514,5375,3968,2219,Tag0,unknown
1545011688529,0,88,1.93359375E-5,41,47,39,161727,16746644,7677,13092,10514,5375,3968,2219,Tag0,unknown
1545011688529,0,-128,-2.8125E-5,41,47,39,161727,16746644,7677,13092,10514,5375,3968,2219,Tag0,unknown
1545011688530,0,-112,-2.4609375E-5,41,47,39,161727,16746644,7677,13092,10514,5375,3968,2219,Tag0,unknown
1545011688530,0,119,2.6147460937500004E-5,41,47,39,161727,16746644,7677,13092,10514,5375,3968,2219,Tag0,unknown
1545011688530,0,97,2.13134765625E-5,41,47,39,161727,16746644,7677,13092,10514,5375,3968,2219,Tag0,unknown
1545011688530,0,107,2.35107421875E-5,41,47,39,161727,16746644,7677,13092,10514,5375,3968,2219,Tag0,unknown
1545011688531,0,-115,-2.52685546875E-5,41,47,39,161727,16746644,7677,13092,10514,5375,3968,2219,Tag0,unknown
1545011688545,0,-108,-2.3730468750000002E-5,41,47,39,161727,16746644,7677,13092,10514,5375,3968,2219,Tag0,unknown
1545011688546,0,113,2.48291015625E-5,41,47,39,161727,16746644,7677,13092,10514,5375,3968,2219,Tag0,unknown
1545011688546,0,76,1.669921875E-5,41,47,39,161727,16746644,7677,13092,10514,5375,3968,2219,Tag0,unknown
1545011688546,0,74,1.6259765625E-5,41,47,39,161727,16746644,7677,13092,10514,5375,3968,2219,Tag0,unknown
1545011688546,0,113,2.48291015625E-5,41,47,39,161727,16746644,7677,13092,10514,5375,3968,2219,Tag0,unknown
1545011688547,0,-123,-2.70263671875E-5,41,47,39,161727,16746644,7677,13092,10514,5375,3968,2219,Tag0,unknown
1545011688547,0,104,2.28515625E-5,41,47,39,161727,16746644,7677,13092,10514,5375,3968,2219,Tag0,unknown
1545011688547,0,60,1.318359375E-5,41,47,39,161727,16746644,7677,13092,10514,5375,3968,2219,Tag0,unknown
1545011688561,0,53,1.1645507812500002E-5,41,47,39,161727,16746644,7677,13092,10514,5375,3968,2219,Tag0,unknown
1545011688562,0,83,1.82373046875E-5,41,47,39,161727,16746644,7677,13092,10514,5375,3968,2219,Tag0,unknown
1545011688562,0,114,2.5048828125000003E-5,41,47,39,161727,16746644,7677,13092,10514,5375,3968,2219,Tag0,unknown
1545011688563,0,88,1.93359375E-5,41,47,39,161727,16746644,7677,13092,10514,5375,3968,2219,Tag0,unknown
1545011688563,0,38,8.349609375E-6,41,47,39,161727,16746644,7677,13092,10514,5375,3968,2219,Tag0,unknown
1545011688578,0,34,7.4707031250000005E-6,41,47,39,161727,16746644,7677,13092,10514,5375,3968,2219,Tag0,unknown
1545011688579,0,81,1.77978515625E-5,41,47,39,161727,16746644,7677,13092,10514,5375,3968,2219,Tag0,unknown
1545011688579,0,115,2.52685546875E-5,41,47,39,161727,16746644,7677,13092,10514,5375,3968,2219,Tag0,unknown
1545011688579,0,85,1.86767578125E-5,41,47,39,161727,16746644,7677,13092,10514,5375,3968,2219,Tag0,unknown
1545011688580,0,25,5.4931640625E-6,41,47,39,161727,16746644,7677,13092,10514,5375,3968,2219,Tag0,unknown
1545011688580,0,3,6.591796875E-7,41,47,39,161727,16746644,7677,13092,10514,5375,3968,2219,Tag0,unknown
1545011688581,0,38,8.349609375E-6,41,47,39,161727,16746644,7677,13092,10514,5375,3968,2219,Tag0,unknown
1545011688581,0,71,1.56005859375E-5,41,47,39,161727,16746644,7677,13092,10514,5375,3968,2219,Tag0,unknown
1545011688582,0,53,1.1645507812500002E-5,41,47,39,161727,16746644,7677,13092,10514,5375,3968,2219,Tag0,unknown
1545011688582,0,9,1.9775390625E-6,41,47,39,161727,16746644,7677,13092,10514,5375,3968,2219,Tag0,unknown
1545011688582,0,-266,-5.8447265625E-5,41,47,39,161727,16746644,7677,13092,10514,5375,3968,2219,Tag0,unknown
1545011688595,0,7,1.5380859375E-6,41,47,39,161727,16746644,7677,13092,10514,5375,3968,2219,Tag0,unknown
1545011688597,0,48,1.0546875E-5,41,47,39,161727,16746644,7677,13092,10514,5375,3968,2219,Tag0,unknown
1545011688598,0,52,1.142578125E-5,41,47,39,161727,16746644,7677,13092,10514,5375,3968,2219,Tag0,unknown
1545011688598,0,18,3.955078125E-6,41,47,39,161727,16746644,7677,13092,10514,5375,3968,2219,Tag0,unknown
1545011688598,0,-260,-5.712890625E-5,41,47,39,161727,16746644,7677,13092,10514,5375,3968,2219,Tag0,unknown
1545011688598,0,18,3.955078125E-6,41,47,39,161727,16746644,7677,13092,10514,5375,3968,2219,Tag0,unknown
1545011688598,0,58,1.2744140625E-5,41,47,39,161727,16746644,7677,13092,10514,5375,3968,2219,Tag0,unknown
1545011688599,0,59,1.29638671875E-5,41,47,39,161727,16746644,7677,13092,10514,5375,3968,2219,Tag0,unknown
1545011688599,0,21,4.614257812500001E-6,41,47,39,161727,16746644,7677,13092,10514,5375,3968,2219,Tag0,unknown
1545011688599,0,-261,-5.73486328125E-5,41,47,39,161727,16746644,7677,13092,10514,5375,3968,2219,Tag0,unknown
1545011688611,0,24,5.2734375E-6,41,47,39,161727,16746644,7677,13092,10514,5375,3968,2219,Tag0,unknown
1545011688611,0,77,1.69189453125E-5,41,47,39,161727,16746644,7677,13092,10514,5375,3968,2219,Tag0,unknown
1545011688612,0,84,1.8457031250000004E-5,41,47,39,161727,16746644,7677,13092,10514,5375,3968,2219,Tag0,unknown
1545011688612,0,41,9.008789062499999E-6,41,47,39,161727,16746644,7677,13092,10514,5375,3968,2219,Tag0,unknown
1545011688612,0,2,4.39453125E-7,41,47,39,161727,16746644,7677,13092,10514,5375,3968,2219,Tag0,unknown
1545011688613,0,2,4.39453125E-7,41,47,39,161727,16746644,7677,13092,10514,5375,3968,2219,Tag0,unknown
1545011688613,0,39,8.5693359375E-6,41,47,39,161727,16746644,7677,13092,10514,5375,3968,2219,Tag0,unknown
1545011688613,0,56,1.23046875E-5,41,47,39,161727,16746644,7677,13092,10514,5375,3968,2219,Tag0,unknown
1545011688628,0,32,7.03125E-6,41,47,39,161727,16746644,7677,13092,10514,5375,3968,2219,Tag0,unknown
1545011688629,0,7,1.5380859375E-6,41,47,39,161727,16746644,7677,13092,10514,5375,3968,2219,Tag0,unknown
1545011688629,0,21,4.614257812500001E-6,41,47,39,161727,16746644,7677,13092,10514,5375,3968,2219,Tag0,unknown
1545011688629,0,67,1.4721679687500002E-5,41,47,39,161727,16746644,7677,13092,10514,5375,3968,2219,Tag0,unknown
1545011688630,0,82,1.8017578124999998E-5,41,47,39,161727,16746644,7677,13092,10514,5375,3968,2219,Tag0,unknown
1545011688630,0,51,1.1206054687499999E-5,41,47,39,161727,16746644,7677,13092,10514,5375,3968,2219,Tag0,unknown
1545011688630,0,13,2.8564453125E-6,41,47,39,161727,16746644,7677,13092,10514,5375,3968,2219,Tag0,unknown
1545011688630,0,20,4.39453125E-6,41,47,39,161727,16746644,7677,13092,10514,5375,3968,2219,Tag0,unknown
1545011688645,0,68,1.4941406250000001E-5,41,47,39,161727,16746644,7677,13092,10514,5375,3968,2219,Tag0,unknown
1545011688645,0,102,2.2412109374999998E-5,41,47,39,161727,16746644,7677,13092,10514,5375,3968,2219,Tag0,unknown
1545011688646,0,81,1.77978515625E-5,41,47,39,161727,16746644,7677,13092,10514,5375,3968,2219,Tag0,unknown
1545011688646,0,38,8.349609375E-6,41,47,39,161727,16746644,7677,13092,10514,5375,3968,2219,Tag0,unknown
1545011688646,0,29,6.3720703125E-6,41,47,39,161727,16746644,7677,13092,10514,5375,3968,2219,Tag0,unknown
1545011688646,0,70,1.5380859375E-5,41,47,39,161727,16746644,7677,13092,10514,5375,3968,2219,Tag0,unknown
1545011688647,0,100,2.197265625E-5,41,47,39,161727,16746644,7677,13092,10514,5375,3968,2219,Tag0,unknown
1545011688647,0,70,1.5380859375E-5,41,47,39,161727,16746644,7677,13092,10514,5375,3968,2219,Tag0,unknown
1545011688648,0,21,4.614257812500001E-6,41,47,39,161727,16746644,7677,13092,10514,5375,3968,2219,Tag0,unknown
1545011688662,0,7,1.5380859375E-6,41,47,39,161727,16746644,7677,13092,10514,5375,3968,2219,Tag0,unknown
1545011688662,0,43,9.448242187500001E-6,41,47,39,161727,16746644,7677,13092,10514,5375,3968,2219,Tag0,unknown
1545011688663,0,85,1.86767578125E-5,41,47,39,161727,16746644,7677,13092,10514,5375,3968,2219,Tag0,unknown
1545011688663,0,75,1.64794921875E-5,41,47,39,161727,16746644,7677,13092,10514,5375,3968,2219,Tag0,unknown
1545011688663,0,44,9.66796875E-6,41,47,39,161727,16746644,7677,13092,10514,5375,3968,2219,Tag0,unknown
1545011688664,0,43,9.448242187500001E-6,41,47,39,161727,16746644,7677,13092,10514,5375,3968,2219,Tag0,unknown
1545011688664,0,82,1.8017578124999998E-5,41,47,39,161727,16746644,7677,13092,10514,5375,3968,2219,Tag0,unknown
1545011688679,0,117,2.5708007812499998E-5,41,47,39,161727,16746644,7677,13092,10514,5375,3968,2219,Tag0,unknown
1545011688680,0,105,2.30712890625E-5,41,47,39,161727,16746644,7677,13092,10514,5375,3968,2219,Tag0,unknown
1545011688680,0,48,1.0546875E-5,41,47,39,161727,16746644,7677,13092,10514,5375,3968,2219,Tag0,unknown
1545011688680,0,8,1.7578125E-6,41,47,39,161727,16746644,7677,13092,10514,5375,3968,2219,Tag0,unknown
1545011688680,0,27,5.9326171875000005E-6,41,47,39,161727,16746644,7677,13092,10514,5375,3968,2219,Tag0,unknown
1545011688681,0,71,1.56005859375E-5,41,47,39,161727,16746644,7677,13092,10514,5375,3968,2219,Tag0,unknown
1545011688681,0,77,1.69189453125E-5,41,47,39,161727,16746644,7677,13092,10514,5375,3968,2219,Tag0,unknown
1545011688681,0,36,7.91015625E-6,41,47,39,161727,16746644,7677,13092,10514,5375,3968,2219,Tag0,unknown
1545011688681,0,8,1.7578125E-6,41,47,39,161727,16746644,7677,13092,10514,5375,3968,2219,Tag0,unknown
1545011688681,0,36,7.91015625E-6,41,47,39,161727,16746644,7677,13092,10514,5375,3968,2219,Tag0,unknown
1545011688682,0,83,1.82373046875E-5,41,47,39,161727,16746644,7677,13092,10514,5375,3968,2219,Tag0,unknown
1545011688695,0,89,1.95556640625E-5,41,47,39,161727,16746644,7677,13092,10514,5375,3968,2219,Tag0,unknown
1545011688695,0,50,1.0986328125E-5,41,47,39,161727,16746644,7677,13092,10514,5375,3968,2219,Tag0,unknown
1545011688696,0,24,5.2734375E-6,41,47,39,161727,16746644,7677,13092,10514,5375,3968,2219,Tag0,unknown
1545011688696,0,43,9.448242187500001E-6,41,47,39,161727,16746644,7677,13092,10514,5375,3968,2219,Tag0,unknown
1545011688697,0,86,1.8896484375000003E-5,41,47,39,161727,16746644,7677,13092,10514,5375,3968,2219,Tag0,unknown
1545011688697,0,87,1.91162109375E-5,41,47,39,161727,16746644,7677,13092,10514,5375,3968,2219,Tag0,unknown
1545011688697,0,39,8.5693359375E-6,41,47,39,161727,16746644,7677,13092,10514,5375,3968,2219,Tag0,unknown
1545011688698,0,3,6.591796875E-7,41,47,39,161727,16746644,7677,13092,10514,5375,3968,2219,Tag0,unknown
1545011688711,0,19,4.1748046875E-6,41,47,39,161727,16746644,7677,13092,10514,5375,3968,2219,Tag0,unknown
1545011688712,0,68,1.4941406250000001E-5,41,47,39,161727,16746644,7677,13092,10514,5375,3968,2219,Tag0,unknown
1545011688712,0,83,1.82373046875E-5,41,47,39,161727,16746644,7677,13092,10514,5375,3968,2219,Tag0,unknown
1545011688712,0,49,1.07666015625E-5,41,47,39,161727,16746644,7677,13092,10514,5375,3968,2219,Tag0,unknown
1545011688712,0,12,2.63671875E-6,41,47,39,161727,16746644,7677,13092,10514,5375,3968,2219,Tag0,unknown
1545011688712,0,19,4.1748046875E-6,41,47,39,161727,16746644,7677,13092,10514,5375,3968,2219,Tag0,unknown
1545011688713,0,59,1.29638671875E-5,41,47,39,161727,16746644,7677,13092,10514,5375,3968,2219,Tag0,unknown
1545011688713,0,83,1.82373046875E-5,41,47,39,161727,16746644,7677,13092,10514,5375,3968,2219,Tag0,unknown
1545011688728,0,53,1.1645507812500002E-5,41,47,39,161727,16746644,7677,13092,10514,5375,3968,2219,Tag0,unknown
1545011688728,0,17,3.7353515625000003E-6,41,47,39,161727,16746644,7677,13092,10514,5375,3968,2219,Tag0,unknown
1545011688729,0,17,3.7353515625000003E-6,41,47,39,161727,16746644,7677,13092,10514,5375,3968,2219,Tag0,unknown
1545011688729,0,65,1.42822265625E-5,41,47,39,161727,16746644,7677,13092,10514,5375,3968,2219,Tag0,unknown
1545011688729,0,97,2.13134765625E-5,41,47,39,161727,16746644,7677,13092,10514,5375,3968,2219,Tag0,unknown
1545011688730,0,76,1.669921875E-5,41,47,39,161727,16746644,7677,13092,10514,5375,3968,2219,Tag0,unknown
1545011688730,0,41,9.008789062499999E-6,41,47,39,161727,16746644,7677,13092,10514,5375,3968,2219,Tag0,unknown
1545011688730,0,33,7.2509765625E-6,41,47,39,161727,16746644,7677,13092,10514,5375,3968,2219,Tag0,unknown
1545011688749,0,64,1.40625E-5,41,47,39,161727,16746644,7677,13092,10514,5375,3968,2219,Tag0,unknown
1545011688750,0,90,1.9775390625E-5,41,47,39,161727,16746644,7677,13092,10514,5375,3968,2219,Tag0,unknown
1545011688751,0,74,1.6259765625E-5,41,47,39,161727,16746644,7677,13092,10514,5375,3968,2219,Tag0,unknown
1545011688751,0,29,6.3720703125E-6,41,47,39,161727,16746644,7677,13092,10514,5375,3968,2219,Tag0,unknown
1545011688761,0,7,1.5380859375E-6,41,47,39,161727,16746644,7677,13092,10514,5375,3968,2219,Tag0,unknown
1545011688761,0,37,8.1298828125E-6,41,47,39,161727,16746644,7677,13092,10514,5375,3968,2219,Tag0,unknown
1545011688761,0,74,1.6259765625E-5,41,47,39,161727,16746644,7677,13092,10514,5375,3968,2219,Tag0,unknown
1545011688762,0,54,1.1865234375000001E-5,41,47,39,161727,16746644,7677,13092,10514,5375,3968,2219,Tag0,unknown
1545011688762,0,0,0.0,41,47,39,161727,16746644,7677,13092,10514,5375,3968,2219,Tag0,unknown
1545011688762,0,-291,-6.39404296875E-5,41,47,39,161727,16746644,7677,13092,10514,5375,3968,2219,Tag0,unknown
1545011688762,0,-283,-6.218261718750001E-5,41,47,39,161727,16746644,7677,13092,10514,5375,3968,2219,Tag0,unknown
1545011688763,0,-260,-5.712890625E-5,41,47,39,161727,16746644,7677,13092,10514,5375,3968,2219,Tag0,unknown
1545011688763,0,-263,-5.7788085937500005E-5,41,47,39,161727,16746644,7677,13092,10514,5375,3968,2219,Tag0,unknown
1545011688763,0,-292,-6.416015625000001E-5,41,47,39,161727,16746644,7677,13092,10514,5375,3968,2219,Tag0,unknown
1545011688763,0,-302,-6.6357421875E-5,41,47,39,161727,16746644,7677,13092,10514,5375,3968,2219,Tag0,unknown
1545011688764,0,-268,-5.8886718750000006E-5,41,47,39,161727,16746644,7677,13092,10514,5375,3968,2219,Tag0,unknown
1545011688764,0,40,8.7890625E-6,41,47,39,161727,16746644,7677,13092,10514,5375,3968,2219,Tag0,unknown
1545011688778,0,55,1.20849609375E-5,41,47,39,161727,16746644,7677,13092,10514,5375,3968,2219,Tag0,unknown
1545011688778,0,19,4.1748046875E-6,41,47,39,161727,16746644,7677,13092,10514,5375,3968,2219,Tag0,unknown
1545011688779,0,-267,-5.86669921875E-5,41,47,39,161727,16746644,7677,13092,10514,5375,3968,2219,Tag0,unknown
1545011688779,0,6,1.318359375E-6,41,47,39,161727,16746644,7677,13092,10514,5375,3968,2219,Tag0,unknown
1545011688779,0,57,1.2524414062500001E-5,41,47,39,161727,16746644,7677,13092,10514,5375,3968,2219,Tag0,unknown
1545011688780,0,70,1.5380859375E-5,41,47,39,161727,16746644,7677,13092,10514,5375,3968,2219,Tag0,unknown
1545011688780,0,41,9.008789062499999E-6,41,47,39,161727,16746644,7677,13092,10514,5375,3968,2219,Tag0,unknown
1545011688780,0,17,3.7353515625000003E-6,41,47,39,161727,16746644,7677,13092,10514,5375,3968,2219,Tag0,unknown
1545011688780,0,23,5.0537109375E-6,41,47,39,161727,16746644,7677,13092,10514,5375,3968,2219,Tag0,unknown
1545011688795,0,55,1.20849609375E-5,41,47,39,161727,16746644,7677,13092,10514,5375,3968,2219,Tag0,unknown
1545011688795,0,66,1.4501953125E-5,41,47,39,161727,16746644,7677,13092,10514,5375,3968,2219,Tag0,unknown
1545011688796,0,36,7.91015625E-6,41,47,39,161727,16746644,7677,13092,10514,5375,3968,2219,Tag0,unknown
1545011688796,0,1,2.197265625E-7,41,47,39,161727,16746644,7677,13092,10514,5375,3968,2219,Tag0,unknown
1545011688796,0,5,1.0986328125E-6,41,47,39,161727,16746644,7677,13092,10514,5375,3968,2219,Tag0,unknown
1545011688797,0,53,1.1645507812500002E-5,41,47,39,161727,16746644,7677,13092,10514,5375,3968,2219,Tag0,unknown
1545011688797,0,82,1.8017578124999998E-5,41,47,39,161727,16746644,7677,13092,10514,5375,3968,2219,Tag0,unknown
1545011688798,0,54,1.1865234375000001E-5,41,47,39,161727,16746644,7677,13092,10514,5375,3968,2219,Tag0,unknown
1545011688798,0,17,3.7353515625000003E-6,41,47,39,161727,16746644,7677,13092,10514,5375,3968,2219,Tag0,unknown
1545011688812,0,16,3.515625E-6,41,47,39,161727,16746644,7677,13092,10514,5375,3968,2219,Tag0,unknown
1545011688812,0,55,1.20849609375E-5,41,47,39,161727,16746644,7677,13092,10514,5375,3968,2219,Tag0,unknown
1545011688813,0,84,1.8457031250000004E-5,41,47,39,161727,16746644,7677,13092,10514,5375,3968,2219,Tag0,unknown
1545011688813,0,61,1.34033203125E-5,41,47,39,161727,16746644,7677,13092,10514,5375,3968,2219,Tag0,unknown
1545011688813,0,23,5.0537109375E-6,41,47,39,161727,16746644,7677,13092,10514,5375,3968,2219,Tag0,unknown
1545011688813,0,18,3.955078125E-6,41,47,39,161727,16746644,7677,13092,10514,5375,3968,2219,Tag0,unknown
1545011688814,0,54,1.1865234375000001E-5,41,47,39,161727,16746644,7677,13092,10514,5375,3968,2219,Tag0,unknown
1545011688814,0,89,1.95556640625E-5,41,47,39,161727,16746644,7677,13092,10514,5375,3968,2219,Tag0,unknown
1545011688828,0,69,1.51611328125E-5,41,47,39,161727,16746644,7677,13092,10514,5375,3968,2219,Tag0,unknown
1545011688828,0,32,7.03125E-6,41,47,39,161727,16746644,7677,13092,10514,5375,3968,2219,Tag0,unknown
1545011688829,0,21,4.614257812500001E-6,41,47,39,161727,16746644,7677,13092,10514,5375,3968,2219,Tag0,unknown
1545011688829,0,55,1.20849609375E-5,41,47,39,161727,16746644,7677,13092,10514,5375,3968,2219,Tag0,unknown
1545011688829,0,92,2.021484375E-5,41,47,39,161727,16746644,7677,13092,10514,5375,3968,2219,Tag0,unknown
1545011688829,0,74,1.6259765625E-5,41,47,39,161727,16746644,7677,13092,10514,5375,3968,2219,Tag0,unknown
1545011688830,0,24,5.2734375E-6,41,47,39,161727,16746644,7677,13092,10514,5375,3968,2219,Tag0,unknown
1545011688830,0,5,1.0986328125E-6,41,47,39,161727,16746644,7677,13092,10514,5375,3968,2219,Tag0,unknown
1545011688830,0,43,9.448242187500001E-6,41,47,39,161727,16746644,7677,13092,10514,5375,3968,2219,Tag0,unknown
1545011688844,0,84,1.8457031250000004E-5,41,47,39,161727,16746644,7677,13092,10514,5375,3968,2219,Tag0,unknown
1545011688845,0,76,1.669921875E-5,41,47,39,161727,16746644,7677,13092,10514,5375,3968,2219,Tag0,unknown
1545011688845,0,42,9.228515625000002E-6,41,47,39,161727,16746644,7677,13092,10514,5375,3968,2219,Tag0,unknown
1545011688845,0,29,6.3720703125E-6,41,47,39,161727,16746644,7677,13092,10514,5375,3968,2219,Tag0,unknown
1545011688845,0,60,1.318359375E-5,41,47,39,161727,16746644,7677,13092,10514,5375,3968,2219,Tag0,unknown
1545011688846,0,97,2.13134765625E-5,41,47,39,161727,16746644,7677,13092,10514,5375,3968,2219,Tag0,unknown
1545011688846,0,85,1.86767578125E-5,41,47,39,161727,16746644,7677,13092,10514,5375,3968,2219,Tag0,unknown
1545011688846,0,39,8.5693359375E-6,41,47,39,161727,16746644,7677,13092,10514,5375,3968,2219,Tag0,unknown
1545011688861,0,8,1.7578125E-6,41,47,39,161727,16746644,7677,13092,10514,5375,3968,2219,Tag0,unknown
1545011688861,0,24,5.2734375E-6,41,47,39,161727,16746644,7677,13092,10514,5375,3968,2219,Tag0,unknown
1545011688862,0,68,1.4941406250000001E-5,41,47,39,161727,16746644,7677,13092,10514,5375,3968,2219,Tag0,unknown
1545011688862,0,80,1.7578125E-5,41,47,39,161727,16746644,7677,13092,10514,5375,3968,2219,Tag0,unknown
1545011688863,0,44,9.66796875E-6,41,47,39,161727,16746644,7677,13092,10514,5375,3968,2219,Tag0,unknown
1545011688863,0,10,2.197265625E-6,41,47,39,161727,16746644,7677,13092,10514,5375,3968,2219,Tag0,unknown
1545011688863,0,21,4.614257812500001E-6,41,47,39,161727,16746644,7677,13092,10514,5375,3968,2219,Tag0,unknown
1545011688863,0,68,1.4941406250000001E-5,41,47,39,161727,16746644,7677,13092,10514,5375,3968,2219,Tag0,unknown
1545011688878,0,84,1.8457031250000004E-5,41,47,39,161727,16746644,7677,13092,10514,5375,3968,2219,Tag0,unknown
1545011688878,0,49,1.07666015625E-5,41,47,39,161727,16746644,7677,13092,10514,5375,3968,2219,Tag0,unknown
1545011688878,0,7,1.5380859375E-6,41,47,39,161727,16746644,7677,13092,10514,5375,3968,2219,Tag0,unknown
1545011688879,0,4,8.7890625E-7,41,47,39,161727,16746644,7677,13092,10514,5375,3968,2219,Tag0,unknown
1545011688879,0,36,7.91015625E-6,41,47,39,161727,16746644,7677,13092,10514,5375,3968,2219,Tag0,unknown
1545011688879,0,49,1.07666015625E-5,41,47,39,161727,16746644,7677,13092,10514,5375,3968,2219,Tag0,unknown
1545011688879,0,8,1.7578125E-6,41,47,39,161727,16746644,7677,13092,10514,5375,3968,2219,Tag0,unknown
1545011688880,0,-284,-6.240234375E-5,41,47,39,161727,16746644,7677,13092,10514,5375,3968,2219,Tag0,unknown
1545011688880,0,-262,-5.7568359375E-5,41,47,39,161727,16746644,7677,13092,10514,5375,3968,2219,Tag0,unknown
1545011688880,0,52,1.142578125E-5,41,47,39,161727,16746644,7677,13092,10514,5375,3968,2219,Tag0,unknown
1545011688894,0,73,1.6040039062500002E-5,41,47,39,161727,16746644,7677,13092,10514,5375,3968,2219,Tag0,unknown
1545011688947,0,33,7.2509765625E-6,41,47,39,161727,16746644,7677,13092,10514,5375,3968,2219,Tag0,unknown
1545011688961,0,-267,-5.86669921875E-5,41,47,39,161727,16746644,7677,13092,10514,5375,3968,2219,Tag0,unknown
1545011689016,0,-260,-5.712890625E-5,41,47,39,161727,16746644,7677,13092,10514,5375,3968,2219,Tag0,unknown
1545011689032,0,41,9.008789062499999E-6,41,47,39,161727,16746644,7677,13092,10514,5375,3968,2219,Tag0,unknown
1545011689062,0,71,1.56005859375E-5,41,47,39,161727,16746644,7677,13092,10514,5375,3968,2219,Tag0,unknown
1545011689079,0,51,1.1206054687499999E-5,41,47,39,161727,16746644,7677,13092,10514,5375,3968,2219,Tag0,unknown
1545011689080,0,-258,-5.6689453125000004E-5,41,47,39,161727,16746644,7677,13092,10514,5375,3968,2219,Tag0,unknown
1545011689080,0,-275,-6.04248046875E-5,41,47,39,161727,16746644,7677,13092,10514,5375,3968,2219,Tag0,unknown
1545011689080,0,19,4.1748046875E-6,41,47,39,161727,16746644,7677,13092,10514,5375,3968,2219,Tag0,unknown
1545011689080,0,52,1.142578125E-5,41,47,39,161727,16746644,7677,13092,10514,5375,3968,2219,Tag0,unknown
1545011689080,0,27,5.9326171875000005E-6,41,47,39,161727,16746644,7677,13092,10514,5375,3968,2219,Tag0,unknown
1545011689081,0,-279,-6.13037109375E-5,41,47,39,161727,16746644,7677,13092,10514,5375,3968,2219,Tag0,unknown
1545011689081,0,-305,-6.70166015625E-5,41,47,39,161727,16746644,7677,13092,10514,5375,3968,2219,Tag0,unknown
1545011689081,0,-280,-6.15234375E-5,41,47,39,161727,16746644,7677,13092,10514,5375,3968,2219,Tag0,unknown
1545011689081,0,8,1.7578125E-6,41,47,39,161727,16746644,7677,13092,10514,5375,3968,2219,Tag0,unknown
1545011689081,0,-259,-5.69091796875E-5,41,47,39,161727,16746644,7677,13092,10514,5375,3968,2219,Tag0,unknown
1545011689082,0,-297,-6.525878906250001E-5,41,47,39,161727,16746644,7677,13092,10514,5375,3968,2219,Tag0,unknown
1545011689082,0,-311,-6.833496093750001E-5,41,47,39,161727,16746644,7677,13092,10514,5375,3968,2219,Tag0,unknown
1545011689082,0,-276,-6.064453125E-5,41,47,39,161727,16746644,7677,13092,10514,5375,3968,2219,Tag0,unknown
1545011689082,0,16,3.515625E-6,41,47,39,161727,16746644,7677,13092,10514,5375,3968,2219,Tag0,unknown
1545011689083,0,-258,-5.6689453125000004E-5,41,47,39,161727,16746644,7677,13092,10514,5375,3968,2219,Tag0,unknown
1545011689083,0,-307,-6.74560546875E-5,41,47,39,161727,16746644,7677,13092,10514,5375,3968,2219,Tag0,unknown
1545011689083,0,-330,-7.2509765625E-5,41,47,39,161727,16746644,7677,13092,10514,5375,3968,2219,Tag0,unknown
1545011689083,0,-313,-6.87744140625E-5,41,47,39,161727,16746644,7677,13092,10514,5375,3968,2219,Tag0,unknown
1545011689083,0,-282,-6.1962890625E-5,41,47,39,161727,16746644,7677,13092,10514,5375,3968,2219,Tag0,unknown
1545011689084,0,-280,-6.15234375E-5,41,47,39,161727,16746644,7677,13092,10514,5375,3968,2219,Tag0,unknown
1545011689084,0,-314,-6.8994140625E-5,41,47,39,161727,16746644,7677,13092,10514,5375,3968,2219,Tag0,unknown
1545011689084,0,-346,-7.6025390625E-5,41,47,39,161727,16746644,7677,13092,10514,5375,3968,2219,Tag0,unknown
1545011689085,0,-327,-7.18505859375E-5,41,47,39,161727,16746644,7677,13092,10514,5375,3968,2219,Tag0,unknown
1545011689085,0,-280,-6.15234375E-5,41,47,39,161727,16746644,7677,13092,10514,5375,3968,2219,Tag0,unknown
1545011689085,0,-277,-6.0864257812500005E-5,41,47,39,161727,16746644,7677,13092,10514,5375,3968,2219,Tag0,unknown
1545011689085,0,-317,-6.96533203125E-5,41,47,39,161727,16746644,7677,13092,10514,5375,3968,2219,Tag0,unknown
1545011689085,0,-353,-7.75634765625E-5,41,47,39,161727,16746644,7677,13092,10514,5375,3968,2219,Tag0,unknown
1545011689086,0,-338,-7.426757812499999E-5,41,47,39,161727,16746644,7677,13092,10514,5375,3968,2219,Tag0,unknown
1545011689086,0,-295,-6.48193359375E-5,41,47,39,161727,16746644,7677,13092,10514,5375,3968,2219,Tag0,unknown
1545011689086,0,-282,-6.1962890625E-5,41,47,39,161727,16746644,7677,13092,10514,5375,3968,2219,Tag0,unknown
1545011689086,0,-311,-6.833496093750001E-5,41,47,39,161727,16746644,7677,13092,10514,5375,3968,2219,Tag0,unknown
1545011689087,0,-344,-7.558593750000001E-5,41,47,39,161727,16746644,7677,13092,10514,5375,3968,2219,Tag0,unknown
1545011689087,0,-342,-7.5146484375E-5,41,47,39,161727,16746644,7677,13092,10514,5375,3968,2219,Tag0,unknown
1545011689087,0,-296,-6.50390625E-5,41,47,39,161727,16746644,7677,13092,10514,5375,3968,2219,Tag0,unknown
1545011689087,0,-258,-5.6689453125000004E-5,41,47,39,161727,16746644,7677,13092,10514,5375,3968,2219,Tag0,unknown
1545011689088,0,-268,-5.8886718750000006E-5,41,47,39,161727,16746644,7677,13092,10514,5375,3968,2219,Tag0,unknown
1545011689088,0,-316,-6.943359375000001E-5,41,47,39,161727,16746644,7677,13092,10514,5375,3968,2219,Tag0,unknown
