timestampMs,poorSignal,eegRawValue,eegRawValueVolts,attention,meditation,blinkStrength,delta,theta,alphaLow,alphaHigh,betaLow,betaHigh,gammaLow,gammaMid,tagEvent,location
1545074287503,0,91,1.99951171875E-5,60,40,56,6598,5940,2891,15347,53247,10854,16755772,2828,Tag0,unknown
1545074287508,0,43,9.448242187500001E-6,60,40,56,6598,5940,2891,15347,53247,10854,16755772,2828,Tag0,unknown
1545074287570,0,43,9.448242187500001E-6,60,40,56,6598,5940,2891,15347,53247,10854,16755772,2828,Tag0,unknown
1545074287574,0,93,2.04345703125E-5,60,40,56,6598,5940,2891,15347,53247,10854,16755772,2828,Tag0,unknown
1545074287610,0,117,2.5708007812499998E-5,60,40,56,6598,5940,2891,15347,53247,10854,16755772,2828,Tag0,unknown
1545074287624,0,53,1.1645507812500002E-5,60,40,56,6598,5940,2891,15347,53247,10854,16755772,2828,Tag0,unknown
1545074287624,0,-280,-6.15234375E-5,60,40,56,6598,5940,2891,15347,53247,10854,16755772,2828,Tag0,unknown
1545074287624,0,-298,-6.5478515625E-5,60,40,56,6598,5940,2891,15347,53247,10854,16755772,2828,Tag0,unknown
1545074287625,0,4,8.7890625E-7,60,40,56,6598,5940,2891,15347,53247,10854,16755772,2828,Tag0,unknown
1545074287625,0,27,5.9326171875000005E-6,60,40,56,6598,5940,2891,15347,53247,10854,16755772,2828,Tag0,unknown
1545074287625,0,-277,-6.0864257812500005E-5,60,40,56,6598,5940,2891,15347,53247,10854,16755772,2828,Tag0,unknown
1545074287625,0,-332,-7.294921875E-5,60,40,56,6598,5940,2891,15347,53247,10854,16755772,2828,Tag0,unknown
1545074287625,0,-347,-7.62451171875E-5,60,40,56,6598,5940,2891,15347,53247,10854,16755772,2828,Tag0,unknown
1545074287625,0,-308,-6.767578125E-5,60,40,56,6598,5940,2891,15347,53247,10854,16755772,2828,Tag0,unknown
1545074287626,0,-275,-6.04248046875E-5,60,40,56,6598,5940,2891,15347,53247,10854,16755772,2828,Tag0,unknown
1545074287626,0,-312,-6.85546875E-5,60,40,56,6598,5940,2891,15347,53247,10854,16755772,2828,Tag0,unknown
1545074287626,0,-376,-8.261718750000001E-5,60,40,56,6598,5940,2891,15347,53247,10854,16755772,2828,Tag0,unknown
1545074287626,0,-139,-3.0541992187500004E-5,60,40,56,6598,5940,2891,15347,53247,10854,16755772,2828,Tag0,unknown
1545074287626,0,-359,-7.88818359375E-5,60,40,56,6598,5940,2891,15347,53247,10854,16755772,2828,Tag0,unknown
1545074287627,0,-317,-6.96533203125E-5,60,40,56,6598,5940,2891,15347,53247,10854,16755772,2828,Tag0,unknown
1545074287627,0,-333,-7.316894531249999E-5,60,40,56,6598,5940,2891,15347,53247,10854,16755772,2828,Tag0,unknown
1545074287627,0,-135,-2.96630859375E-5,60,40,56,6598,5940,2891,15347,53247,10854,16755772,2828,Tag0,unknown
1545074287627,0,-169,-3.7133789062499996E-5,60,40,56,6598,5940,2891,15347,53247,10854,16755772,2828,Tag0,unknown
1545074287627,0,-145,-3.18603515625E-5,60,40,56,6598,5940,2891,15347,53247,10854,16755772,2828,Tag0,unknown
1545074287627,0,-357,-7.844238281250001E-5,60,40,56,6598,5940,2891,15347,53247,10854,16755772,2828,Tag0,unknown
1545074287627,0,-369,-8.10791015625E-5,60,40,56,6598,5940,2891,15347,53247,10854,16755772,2828,Tag0,unknown
1545074287628,0,-164,-3.6035156249999995E-5,60,40,56,6598,5940,2891,15347,53247,10854,16755772,2828,Tag0,unknown
1545074287628,0,-186,-4.0869140625E-5,60,40,56,6598,5940,2891,15347,53247,10854,16755772,2828,Tag0,unknown
1545074287628,0,-148,-3.251953125E-5,60,40,56,6598,5940,2891,15347,53247,10854,16755772,2828,Tag0,unknown
1545074287628,0,-345,-7.58056640625E-5,60,40,56,6598,5940,2891,15347,53247,10854,16755772,2828,Tag0,unknown
1545074287628,0,-337,-7.40478515625E-5,60,40,56,6598,5940,2891,15347,53247,10854,16755772,2828,Tag0,unknown
1545074287628,0,-377,-8.28369140625E-5,60,40,56,6598,5940,2891,15347,53247,10854,16755772,2828,Tag0,unknown
1545074287629,0,-166,-3.6474609375E-5,60,40,56,6598,5940,2891,15347,53247,10854,16755772,2828,Tag0,unknown
1545074287629,0,-154,-3.3837890625E-5,60,40,56,6598,5940,2891,15347,53247,10854,16755772,2828,Tag0,unknown
1545074287629,0,-354,-7.778320312500001E-5,60,40,56,6598,5940,2891,15347,53247,10854,16755772,2828,Tag0,unknown
1545074287629,0,-330,-7.2509765625E-5,60,40,56,6598,5940,2891,15347,53247,10854,16755772,2828,Tag0,unknown
1545074287629,0,-359,-7.88818359375E-5,60,40,56,6598,5940,2891,15347,53247,10854,16755772,2828,Tag0,unknown
1545074287629,0,-132,-2.900390625E-5,60,40,56,6598,5940,2891,15347,53247,10854,16755772,2828,Tag0,unknown
1545074287629,0,-369,-8.10791015625E-5,60,40,56,6598,5940,2891,15347,53247,10854,16755772,2828,Tag0,unknown
1545074287630,0,-322,-7.0751953125E-5,60,40,56,6598,5940,2891,15347,53247,10854,16755772,2828,Tag0,unknown
1545074287630,0,-307,-6.74560546875E-5,60,40,56,6598,5940,2891,15347,53247,10854,16755772,2828,Tag0,unknown
1545074287630,0,-342,-7.5146484375E-5,60,40,56,6598,5940,2891,15347,53247,10854,16755772,2828,Tag0,unknown
1545074287630,0,-129,-2.8344726562500002E-5,60,40,56,6598,5940,2891,15347,53247,10854,16755772,2828,Tag0,unknown
1545074287630,0,-366,-8.0419921875E-5,60,40,56,6598,5940,2891,15347,53247,10854,16755772,2828,Tag0,unknown
1545074287630,0,-305,-6.70166015625E-5,60,40,56,6598,5940,2891,15347,53247,10854,16755772,2828,Tag0,unknown
1545074287630,0,-275,-6.04248046875E-5,60,40,56,6598,5940,2891,15347,53247,10854,16755772,2828,Tag0,unknown
1545074287631,0,-321,-7.053222656250001E-5,60,40,56,6598,5940,2891,15347,53247,10854,16755772,2828,Tag0,unknown
1545074287631,0,-135,-2.96630859375E-5,60,40,56,6598,5940,2891,15347,53247,10854,16755772,2828,Tag0,unknown
1545074287631,0,-155,-3.40576171875E-5,60,40,56,6598,5940,2891,15347,53247,10854,16755772,2828,Tag0,unknown
1545074287631,0,-370,-8.1298828125E-5,60,40,56,6598,5940,2891,15347,53247,10854,16755772,2828,Tag0,unknown
1545074287631,0,-331,-7.272949218750001E-5,60,40,56,6598,5940,2891,15347,53247,10854,16755772,2828,Tag0,unknown
1545074287631,0,-344,-7.558593750000001E-5,60,40,56,6598,5940,2891,15347,53247,10854,16755772,2828,Tag0,unknown
1545074287631,0,-130,-2.8564453125E-5,60,40,56,6598,5940,2891,15347,53247,10854,16755772,2828,Tag0,unknown
1545074287632,0,-138,-3.0322265625E-5,60,40,56,6598,5940,2891,15347,53247,10854,16755772,2828,Tag0,unknown
1545074287632,0,-346,-7.6025390625E-5,60,40,56,6598,5940,2891,15347,53247,10854,16755772,2828,Tag0,unknown
1545074287632,0,-301,-6.613769531250001E-5,60,40,56,6598,5940,2891,15347,53247,10854,16755772,2828,Tag0,unknown
1545074287632,0,-315,-6.92138671875E-5,60,40,56,6598,5940,2891,15347,53247,10854,16755772,2828,Tag0,unknown
1545074287632,0,-358,-7.8662109375E-5,60,40,56,6598,5940,2891,15347,53247,10854,16755772,2828,Tag0,unknown
1545074287632,0,-131,-2.87841796875E-5,60,40,56,6598,5940,2891,15347,53247,10854,16755772,2828,Tag0,unknown
1545074287633,0,-374,-8.2177734375E-5,60,40,56,6598,5940,2891,15347,53247,10854,16755772,2828,Tag0,unknown
1545074287633,0,-353,-7.75634765625E-5,60,40,56,6598,5940,2891,15347,53247,10854,16755772,2828,Tag0,unknown
1545074287633,0,-358,-7.8662109375E-5,60,40,56,6598,5940,2891,15347,53247,10854,16755772,2828,Tag0,unknown
1545074287633,0,-375,-8.23974609375E-5,60,40,56,6598,5940,2891,15347,53247,10854,16755772,2828,Tag0,unknown
1545074287633,0,-376,-8.261718750000001E-5,60,40,56,6598,5940,2891,15347,53247,10854,16755772,2828,Tag0,unknown
1545074287633,0,-346,-7.6025390625E-5,60,40,56,6598,5940,2891,15347,53247,10854,16755772,2828,Tag0,unknown
1545074287633,0,-314,-6.8994140625E-5,60,40,56,6598,5940,2891,15347,53247,10854,16755772,2828,Tag0,unknown
1545074287634,0,-323,-7.09716796875E-5,60,40,56,6598,5940,2891,15347,53247,10854,16755772,2828,Tag0,unknown
1545074287634,0,-355,-7.80029296875E-5,60,40,56,6598,5940,2891,15347,53247,10854,16755772,2828,Tag0,unknown
1545074287634,0,-371,-8.151855468750001E-5,60,40,56,6598,5940,2891,15347,53247,10854,16755772,2828,Tag0,unknown
1545074287634,0,-346,-7.6025390625E-5,60,40,56,6598,5940,2891,15347,53247,10854,16755772,2828,Tag0,unknown
1545074287634,0,-306,-6.723632812500001E-5,60,40,56,6598,5940,2891,15347,53247,10854,16755772,2828,Tag0,unknown
1545074287634,0,-308,-6.767578125E-5,60,40,56,6598,5940,2891,15347,53247,10854,16755772,2828,Tag0,unknown
1545074287634,0,-344,-7.558593750000001E-5,60,40,56,6598,5940,2891,15347,53247,10854,16755772,2828,Tag0,unknown
1545074287635,0,-362,-7.954101562500001E-5,60,40,56,6598,5940,2891,15347,53247,10854,16755772,2828,Tag0,unknown
1545074287635,0,-322,-7.0751953125E-5,60,40,56,6598,5940,2891,15347,53247,10854,16755772,2828,Tag0,unknown
1545074287635,0,-257,-5.64697265625E-5,60,40,56,6598,5940,2891,15347,53247,10854,16755772,2828,Tag0,unknown
1545074287635,0,6,1.318359375E-6,60,40,56,6598,5940,2891,15347,53247,10854,16755772,2828,Tag0,unknown
1545074287635,0,-311,-6.833496093750001E-5,60,40,56,6598,5940,2891,15347,53247,10854,16755772,2828,Tag0,unknown
1545074287635,0,-360,-7.91015625E-5,60,40,56,6598,5940,2891,15347,53247,10854,16755772,2828,Tag0,unknown
1545074287636,0,-328,-7.207031249999999E-5,60,40,56,6598,5940,2891,15347,53247,10854,16755772,2828,Tag0,unknown
1545074287636,0,1,2.197265625E-7,60,40,56,6598,5940,2891,15347,53247,10854,16755772,2828,Tag0,unknown
1545074287636,0,36,7.91015625E-6,60,40,56,6598,5940,2891,15347,53247,10854,16755772,2828,Tag0,unknown
1545074287636,0,11,2.4169921875E-6,60,40,56,6598,5940,2891,15347,53247,10854,16755772,2828,Tag0,unknown
1545074287636,0,-299,-6.56982421875E-5,60,40,56,6598,5940,2891,15347,53247,10854,16755772,2828,Tag0,unknown
1545074287636,0,-323,-7.09716796875E-5,60,40,56,6598,5940,2891,15347,53247,10854,16755772,2828,Tag0,unknown
1545074287637,0,-284,-6.240234375E-5,60,40,56,6598,5940,2891,15347,53247,10854,16755772,2828,Tag0,unknown
1545074287637,0,-259,-5.69091796875E-5,60,40,56,6598,5940,2891,15347,53247,10854,16755772,2828,Tag0,unknown
1545074287637,0,-268,-5.8886718750000006E-5,60,40,56,6598,5940,2891,15347,53247,10854,16755772,2828,Tag0,unknown
1545074287637,0,-290,-6.3720703125E-5,60,40,56,6598,5940,2891,15347,53247,10854,16755772,2828,Tag0,unknown
1545074287637,0,-284,-6.240234375E-5,60,40,56,6598,5940,2891,15347,53247,10854,16755772,2828,Tag0,unknown
1545074287637,0,4,8.7890625E-7,60,40,56,6598,5940,2891,15347,53247,10854,16755772,2828,Tag0,unknown
1545074287637,0,25,5.4931640625E-6,60,40,56,6598,5940,2891,15347,53247,10854,16755772,2828,Tag0,unknown
1545074287638,0,9,1.9775390625E-6,60,40,56,6598,5940,2891,15347,53247,10854,16755772,2828,Tag0,unknown
1545074287638,0,-274,-6.0205078124999997E-5,60,40,56,6598,5940,2891,15347,53247,10854,16755772,2828,Tag0,unknown
1545074287638,0,-267,-5.86669921875E-5,60,40,56,6598,5940,2891,15347,53247,10854,16755772,2828,Tag0,unknown
1545074287638,0,45,9.8876953125E-6,60,40,56,6598,5940,2891,15347,53247,10854,16755772,2828,Tag0,unknown
1545074287641,0,92,2.021484375E-5,60,40,56,6598,5940,2891,15347,53247,10854,16755772,2828,Tag0,unknown
1545074287641,0,85,1.86767578125E-5,60,40,56,6598,5940,2891,15347,53247,10854,16755772,2828,Tag0,unknown
1545074287641,0,52,1.142578125E-5,60,40,56,6598,5940,2891,15347,53247,10854,16755772,2828,Tag0,unknown
1545074287643,0,56,1.23046875E-5,60,40,56,6598,5940,2891,15347,53247,10854,16755772,2828,Tag0,unknown
1545074287643,0,117,2.5708007812499998E-5,60,40,56,6598,5940,2891,15347,53247,10854,16755772,2828,Tag0,unknown
1545074287644,0,-89,-1.95556640625E-5,60,40,56,6598,5940,2891,15347,53247,10854,16755772,2828,Tag0,unknown
1545074287644,0,-111,-2.43896484375E-5,60,40,56,6598,5940,2891,15347,53247,10854,16755772,2828,Tag0,unknown
1545074287644,0,91,1.99951171875E-5,60,40,56,6598,5940,2891,15347,53247,10854,16755772,2828,Tag0,unknown
1545074287657,0,87,1.91162109375E-5,60,40,56,6598,5940,2891,15347,53247,10854,16755772,2828,Tag0,unknown
1545074287657,0,-117,-2.5708007812499998E-5,60,40,56,6598,5940,2891,15347,53247,10854,16755772,2828,Tag0,unknown
1545074287658,0,-61,-1.34033203125E-5,60,40,56,6598,5940,2891,15347,53247,10854,16755772,2828,Tag0,unknown
1545074287658,0,-67,-1.4721679687500002E-5,60,40,56,6598,5940,2891,15347,53247,10854,16755772,2828,Tag0,unknown
1545074287658,0,-118,-2.5927734375E-5,60,40,56,6598,5940,2891,15347,53247,10854,16755772,2828,Tag0,unknown
1545074287658,0,118,2.5927734375E-5,60,40,56,6598,5940,2891,15347,53247,10854,16755772,2828,Tag0,unknown
1545074287658,0,-101,-2.2192382812500002E-5,60,40,56,6598,5940,2891,15347,53247,10854,16755772,2828,Tag0,unknown
1545074287658,0,-47,-1.0327148437500001E-5,60,40,56,6598,5940,2891,15347,53247,10854,16755772,2828,Tag0,unknown
1545074287658,0,-42,-9.228515625000002E-6,60,40,56,6598,5940,2891,15347,53247,10854,16755772,2828,Tag0,unknown
1545074287674,0,-84,-1.8457031250000004E-5,60,40,56,6598,5940,2891,15347,53247,10854,16755772,2828,Tag0,unknown
1545074287674,0,-118,-2.5927734375E-5,60,40,56,6598,5940,2891,15347,53247,10854,16755772,2828,Tag0,unknown
1545074287677,0,-92,-2.021484375E-5,60,40,56,6598,5940,2891,15347,53247,10854,16755772,2828,Tag0,unknown
1545074287677,0,-43,-9.448242187500001E-6,60,40,56,6598,5940,2891,15347,53247,10854,16755772,2828,Tag0,unknown
1545074287677,0,-40,-8.7890625E-6,60,40,56,6598,5940,2891,15347,53247,10854,16755772,2828,Tag0,unknown
1545074287677,0,-89,-1.95556640625E-5,60,40,56,6598,5940,2891,15347,53247,10854,16755772,2828,Tag0,unknown
1545074287677,0,-120,-2.63671875E-5,60,40,56,6598,5940,2891,15347,53247,10854,16755772,2828,Tag0,unknown
1545074287678,0,-89,-1.95556640625E-5,60,40,56,6598,5940,2891,15347,53247,10854,16755772,2828,Tag0,unknown
1545074287678,0,-37,-8.1298828125E-6,60,40,56,6598,5940,2891,15347,53247,10854,16755772,2828,Tag0,unknown
1545074287690,0,-28,-6.15234375E-6,60,40,56,6598,5940,2891,15347,53247,10854,16755772,2828,Tag0,unknown
1545074287691,0,-79,-1.7358398437500003E-5,60,40,56,6598,5940,2891,15347,53247,10854,16755772,2828,Tag0,unknown
1545074287691,0,-125,-2.74658203125E-5,60,40,56,6598,5940,2891,15347,53247,10854,16755772,2828,Tag0,unknown
1545074287691,0,-112,-2.4609375E-5,60,40,56,6598,5940,2891,15347,53247,10854,16755772,2828,Tag0,unknown
1545074287691,0,-59,-1.29638671875E-5,60,40,56,6598,5940,2891,15347,53247,10854,16755772,2828,Tag0,unknown
1545074287691,0,-39,-8.5693359375E-6,60,40,56,6598,5940,2891,15347,53247,10854,16755772,2828,Tag0,unknown
1545074287691,0,-80,-1.7578125E-5,60,40,56,6598,5940,2891,15347,53247,10854,16755772,2828,Tag0,unknown
1545074287692,0,118,2.5927734375E-5,60,40,56,6598,5940,2891,15347,53247,10854,16755772,2828,Tag0,unknown
1545074287707,0,101,2.2192382812500002E-5,60,40,56,6598,5940,2891,15347,53247,10854,16755772,2828,Tag0,unknown
1545074287708,0,-100,-2.197265625E-5,60,40,56,6598,5940,2891,15347,53247,10854,16755772,2828,Tag0,unknown
1545074287710,0,-47,-1.0327148437500001E-5,60,40,56,6598,5940,2891,15347,53247,10854,16755772,2828,Tag0,unknown
1545074287710,0,-78,-1.7138671875E-5,60,40,56,6598,5940,2891,15347,53247,10854,16755772,2828,Tag0,unknown
1545074287710,0,115,2.52685546875E-5,60,40,56,6598,5940,2891,15347,53247,10854,16755772,2828,Tag0,unknown
1545074287710,0,104,2.28515625E-5,60,40,56,6598,5940,2891,15347,53247,10854,16755772,2828,Tag0,unknown
1545074287711,0,-91,-1.99951171875E-5,60,40,56,6598,5940,2891,15347,53247,10854,16755772,2828,Tag0,unknown
1545074287711,0,-46,-1.0107421875E-5,60,40,56,6598,5940,2891,15347,53247,10854,16755772,2828,Tag0,unknown
1545074287711,0,-86,-1.8896484375000003E-5,60,40,56,6598,5940,2891,15347,53247,10854,16755772,2828,Tag0,unknown
1545074287724,0,98,2.1533203125E-5,60,40,56,6598,5940,2891,15347,53247,10854,16755772,2828,Tag0,unknown
1545074287724,0,80,1.7578125E-5,60,40,56,6598,5940,2891,15347,53247,10854,16755772,2828,Tag0,unknown
1545074287724,0,-120,-2.63671875E-5,60,40,56,6598,5940,2891,15347,53247,10854,16755772,2828,Tag0,unknown
1545074287760,0,-60,-1.318359375E-5,47,27,56,57242,16765234,5973,6880,5654,1878,3354,965,Tag0,unknown
1545074287760,0,-76,-1.669921875E-5,47,27,56,57242,16765234,5973,6880,5654,1878,3354,965,Tag0,unknown
1545074287760,0,116,2.548828125E-5,47,27,56,57242,16765234,5973,6880,5654,1878,3354,965,Tag0,unknown
1545074287760,0,92,2.021484375E-5,47,27,56,57242,16765234,5973,6880,5654,1878,3354,965,Tag0,unknown
1545074287761,0,-111,-2.43896484375E-5,47,27,56,57242,16765234,5973,6880,5654,1878,3354,965,Tag0,unknown
1545074287761,0,-61,-1.34033203125E-5,47,27,56,57242,16765234,5973,6880,5654,1878,3354,965,Tag0,unknown
1545074287761,0,-100,-2.197265625E-5,47,27,56,57242,16765234,5973,6880,5654,1878,3354,965,Tag0,unknown
1545074287761,0,67,1.4721679687500002E-5,47,27,56,57242,16765234,5973,6880,5654,1878,3354,965,Tag0,unknown
1545074287761,0,23,5.0537109375E-6,47,27,56,57242,16765234,5973,6880,5654,1878,3354,965,Tag0,unknown
1545074287762,0,55,1.20849609375E-5,47,27,56,57242,16765234,5973,6880,5654,1878,3354,965,Tag0,unknown
1545074287762,0,96,2.109375E-5,47,27,56,57242,16765234,5973,6880,5654,1878,3354,965,Tag0,unknown
1545074287762,0,72,1.58203125E-5,47,27,56,57242,16765234,5973,6880,5654,1878,3354,965,Tag0,unknown
1545074287762,0,12,2.63671875E-6,47,27,56,57242,16765234,5973,6880,5654,1878,3354,965,Tag0,unknown
1545074287762,0,-275,-6.04248046875E-5,47,27,56,57242,16765234,5973,6880,5654,1878,3354,965,Tag0,unknown
1545074287763,0,8,1.7578125E-6,47,27,56,57242,16765234,5973,6880,5654,1878,3354,965,Tag0,unknown
1545074287763,0,61,1.34033203125E-5,47,27,56,57242,16765234,5973,6880,5654,1878,3354,965,Tag0,unknown
1545074287763,0,55,1.20849609375E-5,47,27,56,57242,16765234,5973,6880,5654,1878,3354,965,Tag0,unknown
1545074287763,0,1,2.197265625E-7,47,27,56,57242,16765234,5973,6880,5654,1878,3354,965,Tag0,unknown
1545074287763,0,-290,-6.3720703125E-5,47,27,56,57242,16765234,5973,6880,5654,1878,3354,965,Tag0,unknown
1545074287763,0,-262,-5.7568359375E-5,47,27,56,57242,16765234,5973,6880,5654,1878,3354,965,Tag0,unknown
1545074287763,0,49,1.07666015625E-5,47,27,56,57242,16765234,5973,6880,5654,1878,3354,965,Tag0,unknown
1545074287763,0,56,1.23046875E-5,47,27,56,57242,16765234,5973,6880,5654,1878,3354,965,Tag0,unknown
1545074287764,0,11,2.4169921875E-6,47,27,56,57242,16765234,5973,6880,5654,1878,3354,965,Tag0,unknown
1545074287764,0,-278,-6.108398437500001E-5,47,27,56,57242,16765234,5973,6880,5654,1878,3354,965,Tag0,unknown
1545074287776,0,-257,-5.64697265625E-5,47,27,56,57242,16765234,5973,6880,5654,1878,3354,965,Tag0,unknown
1545074287776,0,61,1.34033203125E-5,47,27,56,57242,16765234,5973,6880,5654,1878,3354,965,Tag0,unknown
1545074287777,0,76,1.669921875E-5,47,27,56,57242,16765234,5973,6880,5654,1878,3354,965,Tag0,unknown
1545074287777,0,35,7.6904296875E-6,47,27,56,57242,16765234,5973,6880,5654,1878,3354,965,Tag0,unknown
1545074287777,0,8,1.7578125E-6,47,27,56,57242,16765234,5973,6880,5654,1878,3354,965,Tag0,unknown
1545074287777,0,28,6.15234375E-6,47,27,56,57242,16765234,5973,6880,5654,1878,3354,965,Tag0,unknown
1545074287777,0,88,1.93359375E-5,47,27,56,57242,16765234,5973,6880,5654,1878,3354,965,Tag0,unknown
1545074287777,0,121,2.6586914062500003E-5,47,27,56,57242,16765234,5973,6880,5654,1878,3354,965,Tag0,unknown
1545074287790,0,85,1.86767578125E-5,47,27,56,57242,16765234,5973,6880,5654,1878,3354,965,Tag0,unknown
1545074287791,0,36,7.91015625E-6,47,27,56,57242,16765234,5973,6880,5654,1878,3354,965,Tag0,unknown
1545074287791,0,43,9.448242187500001E-6,47,27,56,57242,16765234,5973,6880,5654,1878,3354,965,Tag0,unknown
1545074287791,0,105,2.30712890625E-5,47,27,56,57242,16765234,5973,6880,5654,1878,3354,965,Tag0,unknown
1545074287791,0,-109,-2.39501953125E-5,47,27,56,57242,16765234,5973,6880,5654,1878,3354,965,Tag0,unknown
1545074287791,0,124,2.724609375E-5,47,27,56,57242,16765234,5973,6880,5654,1878,3354,965,Tag0,unknown
1545074287791,0,77,1.69189453125E-5,47,27,56,57242,16765234,5973,6880,5654,1878,3354,965,Tag0,unknown
1545074287808,0,76,1.669921875E-5,47,27,56,57242,16765234,5973,6880,5654,1878,3354,965,Tag0,unknown
1545074287808,0,-109,-2.39501953125E-5,47,27,56,57242,16765234,5973,6880,5654,1878,3354,965,Tag0,unknown
1545074287810,0,-72,-1.58203125E-5,47,27,56,57242,16765234,5973,6880,5654,1878,3354,965,Tag0,unknown
1545074287811,0,-116,-2.548828125E-5,47,27,56,57242,16765234,5973,6880,5654,1878,3354,965,Tag0,unknown
1545074287811,0,73,1.6040039062500002E-5,47,27,56,57242,16765234,5973,6880,5654,1878,3354,965,Tag0,unknown
1545074287811,0,58,1.2744140625E-5,47,27,56,57242,16765234,5973,6880,5654,1878,3354,965,Tag0,unknown
1545074287811,0,121,2.6586914062500003E-5,47,27,56,57242,16765234,5973,6880,5654,1878,3354,965,Tag0,unknown
1545074287824,0,-72,-1.58203125E-5,47,27,56,57242,16765234,5973,6880,5654,1878,3354,965,Tag0,unknown
1545074287824,0,-84,-1.8457031250000004E-5,47,27,56,57242,16765234,5973,6880,5654,1878,3354,965,Tag0,unknown
1545074287824,0,115,2.52685546875E-5,47,27,56,57242,16765234,5973,6880,5654,1878,3354,965,Tag0,unknown
1545074287824,0,82,1.8017578124999998E-5,47,27,56,57242,16765234,5973,6880,5654,1878,3354,965,Tag0,unknown
1545074287825,0,107,2.35107421875E-5,47,27,56,57242,16765234,5973,6880,5654,1878,3354,965,Tag0,unknown
1545074287825,0,-102,-2.2412109374999998E-5,47,27,56,57242,16765234,5973,6880,5654,1878,3354,965,Tag0,unknown
1545074287826,0,-107,-2.35107421875E-5,47,27,56,57242,16765234,5973,6880,5654,1878,3354,965,Tag0,unknown
1545074287826,0,101,2.2192382812500002E-5,47,27,56,57242,16765234,5973,6880,5654,1878,3354,965,Tag0,unknown
1545074287826,0,64,1.40625E-5,47,27,56,57242,16765234,5973,6880,5654,1878,3354,965,Tag0,unknown
1545074287826,0,91,1.99951171875E-5,47,27,56,57242,16765234,5973,6880,5654,1878,3354,965,Tag0,unknown
1545074287826,0,-99,-2.1752929687500003E-5,47,27,56,57242,16765234,5973,6880,5654,1878,3354,965,Tag0,unknown
1545074287840,0,-88,-1.93359375E-5,47,27,56,57242,16765234,5973,6880,5654,1878,3354,965,Tag0,unknown
1545074287841,0,117,2.5708007812499998E-5,47,27,56,57242,16765234,5973,6880,5654,1878,3354,965,Tag0,unknown
1545074287841,0,69,1.51611328125E-5,47,27,56,57242,16765234,5973,6880,5654,1878,3354,965,Tag0,unknown
1545074287841,0,89,1.95556640625E-5,47,27,56,57242,16765234,5973,6880,5654,1878,3354,965,Tag0,unknown
1545074287841,0,-107,-2.35107421875E-5,47,27,56,57242,16765234,5973,6880,5654,1878,3354,965,Tag0,unknown
1545074287841,0,-91,-1.99951171875E-5,47,27,56,57242,16765234,5973,6880,5654,1878,3354,965,Tag0,unknown
1545074287842,0,119,2.6147460937500004E-5,47,27,56,57242,16765234,5973,6880,5654,1878,3354,965,Tag0,unknown
1545074287842,0,81,1.77978515625E-5,47,27,56,57242,16765234,5973,6880,5654,1878,3354,965,Tag0,unknown
1545074287857,0,103,2.26318359375E-5,47,27,56,57242,16765234,5973,6880,5654,1878,3354,965,Tag0,unknown
1545074287860,0,-92,-2.021484375E-5,47,27,56,57242,16765234,5973,6880,5654,1878,3354,965,Tag0,unknown
1545074287860,0,-86,-1.8896484375000003E-5,47,27,56,57242,16765234,5973,6880,5654,1878,3354,965,Tag0,unknown
1545074287860,0,115,2.52685546875E-5,47,27,56,57242,16765234,5973,6880,5654,1878,3354,965,Tag0,unknown
1545074287860,0,61,1.34033203125E-5,47,27,56,57242,16765234,5973,6880,5654,1878,3354,965,Tag0,unknown
1545074287860,0,70,1.5380859375E-5,47,27,56,57242,16765234,5973,6880,5654,1878,3354,965,Tag0,unknown
1545074287861,0,-118,-2.5927734375E-5,47,27,56,57242,16765234,5973,6880,5654,1878,3354,965,Tag0,unknown
1545074287861,0,-80,-1.7578125E-5,47,27,56,57242,16765234,5973,6880,5654,1878,3354,965,Tag0,unknown
1545074287861,0,-120,-2.63671875E-5,47,27,56,57242,16765234,5973,6880,5654,1878,3354,965,Tag0,unknown
1545074287874,0,91,1.99951171875E-5,47,27,56,57242,16765234,5973,6880,5654,1878,3354,965,Tag0,unknown
1545074287875,0,105,2.30712890625E-5,47,27,56,57242,16765234,5973,6880,5654,1878,3354,965,Tag0,unknown
1545074287875,0,-88,-1.93359375E-5,47,27,56,57242,16765234,5973,6880,5654,1878,3354,965,Tag0,unknown
1545074287875,0,-60,-1.318359375E-5,47,27,56,57242,16765234,5973,6880,5654,1878,3354,965,Tag0,unknown
1545074287875,0,-108,-2.3730468750000002E-5,47,27,56,57242,16765234,5973,6880,5654,1878,3354,965,Tag0,unknown
1545074287875,0,99,2.1752929687500003E-5,47,27,56,57242,16765234,5973,6880,5654,1878,3354,965,Tag0,unknown
1545074287875,0,106,2.3291015625000003E-5,47,27,56,57242,16765234,5973,6880,5654,1878,3354,965,Tag0,unknown
1545074287890,0,-92,-2.021484375E-5,47,27,56,57242,16765234,5973,6880,5654,1878,3354,965,Tag0,unknown
1545074287891,0,-60,-1.318359375E-5,47,27,56,57242,16765234,5973,6880,5654,1878,3354,965,Tag0,unknown
1545074287891,0,-94,-2.0654296875000002E-5,47,27,56,57242,16765234,5973,6880,5654,1878,3354,965,Tag0,unknown
1545074287891,0,99,2.1752929687500003E-5,47,27,56,57242,16765234,5973,6880,5654,1878,3354,965,Tag0,unknown
1545074287891,0,76,1.669921875E-5,47,27,56,57242,16765234,5973,6880,5654,1878,3354,965,Tag0,unknown
1545074287892,0,119,2.6147460937500004E-5,47,27,56,57242,16765234,5973,6880,5654,1878,3354,965,Tag0,unknown
1545074287892,0,-85,-1.86767578125E-5,47,27,56,57242,16765234,5973,6880,5654,1878,3354,965,Tag0,unknown
1545074287892,0,-94,-2.0654296875000002E-5,47,27,56,57242,16765234,5973,6880,5654,1878,3354,965,Tag0,unknown
1545074287892,0,104,2.28515625E-5,47,27,56,57242,16765234,5973,6880,5654,1878,3354,965,Tag0,unknown
1545074287892,0,71,1.56005859375E-5,47,27,56,57242,16765234,5973,6880,5654,1878,3354,965,Tag0,unknown
1545074287907,0,106,2.3291015625000003E-5,47,27,56,57242,16765234,5973,6880,5654,1878,3354,965,Tag0,unknown
1545074287908,0,-103,-2.26318359375E-5,47,27,56,57242,16765234,5973,6880,5654,1878,3354,965,Tag0,unknown
1545074287908,0,-117,-2.5708007812499998E-5,47,27,56,57242,16765234,5973,6880,5654,1878,3354,965,Tag0,unknown
1545074287908,0,96,2.109375E-5,47,27,56,57242,16765234,5973,6880,5654,1878,3354,965,Tag0,unknown
1545074287908,0,73,1.6040039062500002E-5,47,27,56,57242,16765234,5973,6880,5654,1878,3354,965,Tag0,unknown
1545074287908,0,97,2.13134765625E-5,47,27,56,57242,16765234,5973,6880,5654,1878,3354,965,Tag0,unknown
1545074287908,0,-119,-2.6147460937500004E-5,47,27,56,57242,16765234,5973,6880,5654,1878,3354,965,Tag0,unknown
1545074287909,0,120,2.63671875E-5,47,27,56,57242,16765234,5973,6880,5654,1878,3354,965,Tag0,unknown
1545074287924,0,51,1.1206054687499999E-5,47,27,56,57242,16765234,5973,6880,5654,1878,3354,965,Tag0,unknown
1545074287924,0,-261,-5.73486328125E-5,47,27,56,57242,16765234,5973,6880,5654,1878,3354,965,Tag0,unknown
1545074287924,0,12,2.63671875E-6,47,27,56,57242,16765234,5973,6880,5654,1878,3354,965,Tag0,unknown
1545074287924,0,81,1.77978515625E-5,47,27,56,57242,16765234,5973,6880,5654,1878,3354,965,Tag0,unknown
1545074287925,0,104,2.28515625E-5,47,27,56,57242,16765234,5973,6880,5654,1878,3354,965,Tag0,unknown
1545074287925,0,72,1.58203125E-5,47,27,56,57242,16765234,5973,6880,5654,1878,3354,965,Tag0,unknown
1545074287925,0,41,9.008789062499999E-6,47,27,56,57242,16765234,5973,6880,5654,1878,3354,965,Tag0,unknown
1545074287925,0,67,1.4721679687500002E-5,47,27,56,57242,16765234,5973,6880,5654,1878,3354,965,Tag0,unknown
1545074287925,0,119,2.6147460937500004E-5,47,27,56,57242,16765234,5973,6880,5654,1878,3354,965,Tag0,unknown
1545074287940,0,-126,-2.7685546875E-5,47,27,56,57242,16765234,5973,6880,5654,1878,3354,965,Tag0,unknown
1545074287943,0,90,1.9775390625E-5,47,27,56,57242,16765234,5973,6880,5654,1878,3354,965,Tag0,unknown
1545074287943,0,56,1.23046875E-5,47,27,56,57242,16765234,5973,6880,5654,1878,3354,965,Tag0,unknown
1545074287943,0,73,1.6040039062500002E-5,47,27,56,57242,16765234,5973,6880,5654,1878,3354,965,Tag0,unknown
1545074287943,0,-127,-2.79052734375E-5,47,27,56,57242,16765234,5973,6880,5654,1878,3354,965,Tag0,unknown
1545074287943,0,-112,-2.4609375E-5,47,27,56,57242,16765234,5973,6880,5654,1878,3354,965,Tag0,unknown
1545074287943,0,90,1.9775390625E-5,47,27,56,57242,16765234,5973,6880,5654,1878,3354,965,Tag0,unknown
1545074287943,0,37,8.1298828125E-6,47,27,56,57242,16765234,5973,6880,5654,1878,3354,965,Tag0,unknown
1545074287958,0,40,8.7890625E-6,47,27,56,57242,16765234,5973,6880,5654,1878,3354,965,Tag0,unknown
1545074287958,0,103,2.26318359375E-5,47,27,56,57242,16765234,5973,6880,5654,1878,3354,965,Tag0,unknown
1545074287959,0,-110,-2.4169921875E-5,47,27,56,57242,16765234,5973,6880,5654,1878,3354,965,Tag0,unknown
1545074287959,0,114,2.5048828125000003E-5,47,27,56,57242,16765234,5973,6880,5654,1878,3354,965,Tag0,unknown
1545074287959,0,58,1.2744140625E-5,47,27,56,57242,16765234,5973,6880,5654,1878,3354,965,Tag0,unknown
1545074287959,0,45,9.8876953125E-6,47,27,56,57242,16765234,5973,6880,5654,1878,3354,965,Tag0,unknown
1545074287960,0,83,1.82373046875E-5,47,27,56,57242,16765234,5973,6880,5654,1878,3354,965,Tag0,unknown
1545074287960,0,113,2.48291015625E-5,47,27,56,57242,16765234,5973,6880,5654,1878,3354,965,Tag0,unknown
1545074287960,0,75,1.64794921875E-5,47,27,56,57242,16765234,5973,6880,5654,1878,3354,965,Tag0,unknown
1545074287978,0,19,4.1748046875E-6,47,27,56,57242,16765234,5973,6880,5654,1878,3354,965,Tag0,unknown
1545074287985,0,19,4.1748046875E-6,47,27,56,57242,16765234,5973,6880,5654,1878,3354,965,Tag0,unknown
1545074287986,0,74,1.6259765625E-5,47,27,56,57242,16765234,5973,6880,5654,1878,3354,965,Tag0,unknown
1545074287986,0,118,2.5927734375E-5,47,27,56,57242,16765234,5973,6880,5654,1878,3354,965,Tag0,unknown
1545074287987,0,89,1.95556640625E-5,47,27,56,57242,16765234,5973,6880,5654,1878,3354,965,Tag0,unknown
1545074287987,0,26,5.712890625E-6,47,27,56,57242,16765234,5973,6880,5654,1878,3354,965,Tag0,unknown
1545074287988,0,4,8.7890625E-7,47,27,56,57242,16765234,5973,6880,5654,1878,3354,965,Tag0,unknown
1545074287988,0,48,1.0546875E-5,47,27,56,57242,16765234,5973,6880,5654,1878,3354,965,Tag0,unknown
1545074287991,0,99,2.1752929687500003E-5,47,27,56,57242,16765234,5973,6880,5654,1878,3354,965,Tag0,unknown
1545074287992,0,90,1.9775390625E-5,47,27,56,57242,16765234,5973,6880,5654,1878,3354,965,Tag0,unknown
1545074287997,0,51,1.1206054687499999E-5,47,27,56,57242,16765234,5973,6880,5654,1878,3354,965,Tag0,unknown
1545074287997,0,39,8.5693359375E-6,47,27,56,57242,16765234,5973,6880,5654,1878,3354,965,Tag0,unknown
1545074287998,0,77,1.69189453125E-5,47,27,56,57242,16765234,5973,6880,5654,1878,3354,965,Tag0,unknown
1545074287998,0,116,2.548828125E-5,47,27,56,57242,16765234,5973,6880,5654,1878,3354,965,Tag0,unknown
1545074288016,0,86,1.8896484375000003E-5,47,27,56,57242,16765234,5973,6880,5654,1878,3354,965,Tag0,unknown
1545074288018,0,22,4.833984375E-6,47,27,56,57242,16765234,5973,6880,5654,1878,3354,965,Tag0,unknown
1545074288019,0,-261,-5.73486328125E-5,47,27,56,57242,16765234,5973,6880,5654,1878,3354,965,Tag0,unknown
1545074288020,0,27,5.9326171875000005E-6,47,27,56,57242,16765234,5973,6880,5654,1878,3354,965,Tag0,unknown
1545074288021,0,80,1.7578125E-5,47,27,56,57242,16765234,5973,6880,5654,1878,3354,965,Tag0,unknown
1545074288022,0,80,1.7578125E-5,47,27,56,57242,16765234,5973,6880,5654,1878,3354,965,Tag0,unknown
1545074288022,0,27,5.9326171875000005E-6,47,27,56,57242,16765234,5973,6880,5654,1878,3354,965,Tag0,unknown
1545074288025,0,-266,-5.8447265625E-5,47,27,56,57242,16765234,5973,6880,5654,1878,3354,965,Tag0,unknown
1545074288025,0,11,2.4169921875E-6,47,27,56,57242,16765234,5973,6880,5654,1878,3354,965,Tag0,unknown
1545074288027,0,69,1.51611328125E-5,47,27,56,57242,16765234,5973,6880,5654,1878,3354,965,Tag0,unknown
1545074288028,0,69,1.51611328125E-5,47,27,56,57242,16765234,5973,6880,5654,1878,3354,965,Tag0,unknown
1545074288028,0,3,6.591796875E-7,47,27,56,57242,16765234,5973,6880,5654,1878,3354,965,Tag0,unknown
1545074288028,0,-308,-6.767578125E-5,47,27,56,57242,16765234,5973,6880,5654,1878,3354,965,Tag0,unknown
1545074288028,0,-293,-6.43798828125E-5,47,27,56,57242,16765234,5973,6880,5654,1878,3354,965,Tag0,unknown
1545074288028,0,22,4.833984375E-6,47,27,56,57242,16765234,5973,6880,5654,1878,3354,965,Tag0,unknown
1545074288029,0,48,1.0546875E-5,47,27,56,57242,16765234,5973,6880,5654,1878,3354,965,Tag0,unknown
1545074288029,0,6,1.318359375E-6,47,27,56,57242,16765234,5973,6880,5654,1878,3354,965,Tag0,unknown
1545074288029,0,-307,-6.74560546875E-5,47,27,56,57242,16765234,5973,6880,5654,1878,3354,965,Tag0,unknown
1545074288029,0,-316,-6.943359375000001E-5,47,27,56,57242,16765234,5973,6880,5654,1878,3354,965,Tag0,unknown
1545074288032,0,-266,-5.8447265625E-5,47,27,56,57242,16765234,5973,6880,5654,1878,3354,965,Tag0,unknown
1545074288032,0,32,7.03125E-6,47,27,56,57242,16765234,5973,6880,5654,1878,3354,965,Tag0,unknown
1545074288042,0,5,1.0986328125E-6,47,27,56,57242,16765234,5973,6880,5654,1878,3354,965,Tag0,unknown
1545074288043,0,-293,-6.43798828125E-5,47,27,56,57242,16765234,5973,6880,5654,1878,3354,965,Tag0,unknown
1545074288043,0,-284,-6.240234375E-5,47,27,56,57242,16765234,5973,6880,5654,1878,3354,965,Tag0,unknown
1545074288043,0,29,6.3720703125E-6,47,27,56,57242,16765234,5973,6880,5654,1878,3354,965,Tag0,unknown
1545074288043,0,71,1.56005859375E-5,47,27,56,57242,16765234,5973,6880,5654,1878,3354,965,Tag0,unknown
1545074288043,0,51,1.1206054687499999E-5,47,27,56,57242,16765234,5973,6880,5654,1878,3354,965,Tag0,unknown
1545074288043,0,-258,-5.6689453125000004E-5,47,27,56,57242,16765234,5973,6880,5654,1878,3354,965,Tag0,unknown
1545074288044,0,-259,-5.69091796875E-5,47,27,56,57242,16765234,5973,6880,5654,1878,3354,965,Tag0,unknown
1545074288059,0,66,1.4501953125E-5,47,27,56,57242,16765234,5973,6880,5654,1878,3354,965,Tag0,unknown
1545074288060,0,107,2.35107421875E-5,47,27,56,57242,16765234,5973,6880,5654,1878,3354,965,Tag0,unknown
1545074288060,0,72,1.58203125E-5,47,27,56,57242,16765234,5973,6880,5654,1878,3354,965,Tag0,unknown
1545074288060,0,18,3.955078125E-6,47,27,56,57242,16765234,5973,6880,5654,1878,3354,965,Tag0,unknown
1545074288060,0,11,2.4169921875E-6,47,27,56,57242,16765234,5973,6880,5654,1878,3354,965,Tag0,unknown
1545074288061,0,57,1.2524414062500001E-5,47,27,56,57242,16765234,5973,6880,5654,1878,3354,965,Tag0,unknown
1545074288077,0,90,1.9775390625E-5,47,27,56,57242,16765234,5973,6880,5654,1878,3354,965,Tag0,unknown
1545074288094,0,70,1.5380859375E-5,47,27,56,57242,16765234,5973,6880,5654,1878,3354,965,Tag0,unknown
1545074288094,0,32,7.03125E-6,47,27,56,57242,16765234,5973,6880,5654,1878,3354,965,Tag0,unknown
1545074288111,0,21,4.614257812500001E-6,47,27,56,57242,16765234,5973,6880,5654,1878,3354,965,Tag0,unknown
1545074288111,0,48,1.0546875E-5,47,27,56,57242,16765234,5973,6880,5654,1878,3354,965,Tag0,unknown
1545074288111,0,59,1.29638671875E-5,47,27,56,57242,16765234,5973,6880,5654,1878,3354,965,Tag0,unknown
1545074288112,0,22,4.833984375E-6,47,27,56,57242,16765234,5973,6880,5654,1878,3354,965,Tag0,unknown
1545074288112,0,-295,-6.48193359375E-5,47,27,56,57242,16765234,5973,6880,5654,1878,3354,965,Tag0,unknown
1545074288112,0,-332,-7.294921875E-5,47,27,56,57242,16765234,5973,6880,5654,1878,3354,965,Tag0,unknown
1545074288112,0,-310,-6.8115234375E-5,47,27,56,57242,16765234,5973,6880,5654,1878,3354,965,Tag0,unknown
1545074288113,0,-269,-5.9106445312499996E-5,47,27,56,57242,16765234,5973,6880,5654,1878,3354,965,Tag0,unknown
1545074288113,0,-286,-6.2841796875E-5,47,27,56,57242,16765234,5973,6880,5654,1878,3354,965,Tag0,unknown
1545074288113,0,-341,-7.492675781250002E-5,47,27,56,57242,16765234,5973,6880,5654,1878,3354,965,Tag0,unknown
1545074288113,0,-362,-7.954101562500001E-5,47,27,56,57242,16765234,5973,6880,5654,1878,3354,965,Tag0,unknown
1545074288114,0,-332,-7.294921875E-5,47,27,56,57242,16765234,5973,6880,5654,1878,3354,965,Tag0,unknown
1545074288114,0,-291,-6.39404296875E-5,47,27,56,57242,16765234,5973,6880,5654,1878,3354,965,Tag0,unknown
1545074288114,0,-290,-6.3720703125E-5,47,27,56,57242,16765234,5973,6880,5654,1878,3354,965,Tag0,unknown
1545074288114,0,-329,-7.229003906250001E-5,47,27,56,57242,16765234,5973,6880,5654,1878,3354,965,Tag0,unknown
1545074288114,0,-361,-7.93212890625E-5,47,27,56,57242,16765234,5973,6880,5654,1878,3354,965,Tag0,unknown
1545074288115,0,-345,-7.58056640625E-5,47,27,56,57242,16765234,5973,6880,5654,1878,3354,965,Tag0,unknown
1545074288115,0,-305,-6.70166015625E-5,47,27,56,57242,16765234,5973,6880,5654,1878,3354,965,Tag0,unknown
1545074288115,0,-296,-6.50390625E-5,47,27,56,57242,16765234,5973,6880,5654,1878,3354,965,Tag0,unknown
1545074288115,0,-327,-7.18505859375E-5,47,27,56,57242,16765234,5973,6880,5654,1878,3354,965,Tag0,unknown
1545074288115,0,-365,-8.02001953125E-5,47,27,56,57242,16765234,5973,6880,5654,1878,3354,965,Tag0,unknown
1545074288115,0,-369,-8.10791015625E-5,47,27,56,57242,16765234,5973,6880,5654,1878,3354,965,Tag0,unknown
1545074288116,0,-312,-6.85546875E-5,47,27,56,57242,16765234,5973,6880,5654,1878,3354,965,Tag0,unknown
1545074288116,0,-280,-6.15234375E-5,47,27,56,57242,16765234,5973,6880,5654,1878,3354,965,Tag0,unknown
1545074288116,0,-311,-6.833496093750001E-5,47,27,56,57242,16765234,5973,6880,5654,1878,3354,965,Tag0,unknown
1545074288127,0,-347,-7.62451171875E-5,47,27,56,57242,16765234,5973,6880,5654,1878,3354,965,Tag0,unknown
1545074288128,0,-339,-7.448730468750001E-5,47,27,56,57242,16765234,5973,6880,5654,1878,3354,965,Tag0,unknown
1545074288131,0,-277,-6.0864257812500005E-5,47,27,56,57242,16765234,5973,6880,5654,1878,3354,965,Tag0,unknown
1545074288131,0,25,5.4931640625E-6,47,27,56,57242,16765234,5973,6880,5654,1878,3354,965,Tag0,unknown
1545074288131,0,6,1.318359375E-6,47,27,56,57242,16765234,5973,6880,5654,1878,3354,965,Tag0,unknown
1545074288132,0,-301,-6.613769531250001E-5,47,27,56,57242,16765234,5973,6880,5654,1878,3354,965,Tag0,unknown
1545074288132,0,-332,-7.294921875E-5,47,27,56,57242,16765234,5973,6880,5654,1878,3354,965,Tag0,unknown
1545074288132,0,-292,-6.416015625000001E-5,47,27,56,57242,16765234,5973,6880,5654,1878,3354,965,Tag0,unknown
1545074288132,0,9,1.9775390625E-6,47,27,56,57242,16765234,5973,6880,5654,1878,3354,965,Tag0,unknown
1545074288132,0,3,6.591796875E-7,47,27,56,57242,16765234,5973,6880,5654,1878,3354,965,Tag0,unknown
1545074288141,0,-298,-6.5478515625E-5,47,27,56,57242,16765234,5973,6880,5654,1878,3354,965,Tag0,unknown
1545074288141,0,-321,-7.053222656250001E-5,47,27,56,57242,16765234,5973,6880,5654,1878,3354,965,Tag0,unknown
1545074288141,0,-268,-5.8886718750000006E-5,47,27,56,57242,16765234,5973,6880,5654,1878,3354,965,Tag0,unknown
1545074288141,0,51,1.1206054687499999E-5,47,27,56,57242,16765234,5973,6880,5654,1878,3354,965,Tag0,unknown
1545074288142,0,64,1.40625E-5,47,27,56,57242,16765234,5973,6880,5654,1878,3354,965,Tag0,unknown
1545074288142,0,41,9.008789062499999E-6,47,27,56,57242,16765234,5973,6880,5654,1878,3354,965,Tag0,unknown
1545074288142,0,44,9.66796875E-6,47,27,56,57242,16765234,5973,6880,5654,1878,3354,965,Tag0,unknown
1545074288160,0,90,1.9775390625E-5,47,27,56,57242,16765234,5973,6880,5654,1878,3354,965,Tag0,unknown
1545074288160,0,-119,-2.6147460937500004E-5,47,27,56,57242,16765234,5973,6880,5654,1878,3354,965,Tag0,unknown
1545074288160,0,113,2.48291015625E-5,47,27,56,57242,16765234,5973,6880,5654,1878,3354,965,Tag0,unknown
1545074288161,0,43,9.448242187500001E-6,47,27,56,57242,16765234,5973,6880,5654,1878,3354,965,Tag0,unknown
1545074288163,0,9,1.9775390625E-6,47,27,56,57242,16765234,5973,6880,5654,1878,3354,965,Tag0,unknown
1545074288164,0,35,7.6904296875E-6,47,27,56,57242,16765234,5973,6880,5654,1878,3354,965,Tag0,unknown
1545074288164,0,80,1.7578125E-5,47,27,56,57242,16765234,5973,6880,5654,1878,3354,965,Tag0,unknown
1545074288164,0,91,1.99951171875E-5,47,27,56,57242,16765234,5973,6880,5654,1878,3354,965,Tag0,unknown
1545074288164,0,71,1.56005859375E-5,47,27,56,57242,16765234,5973,6880,5654,1878,3354,965,Tag0,unknown
1545074288175,0,43,9.448242187500001E-6,47,27,56,57242,16765234,5973,6880,5654,1878,3354,965,Tag0,unknown
1545074288176,0,60,1.318359375E-5,47,27,56,57242,16765234,5973,6880,5654,1878,3354,965,Tag0,unknown
1545074288176,0,109,2.39501953125E-5,47,27,56,57242,16765234,5973,6880,5654,1878,3354,965,Tag0,unknown
1545074288176,0,121,2.6586914062500003E-5,47,27,56,57242,16765234,5973,6880,5654,1878,3354,965,Tag0,unknown
1545074288176,0,87,1.91162109375E-5,47,27,56,57242,16765234,5973,6880,5654,1878,3354,965,Tag0,unknown
1545074288176,0,51,1.1206054687499999E-5,47,27,56,57242,16765234,5973,6880,5654,1878,3354,965,Tag0,unknown
1545074288177,0,61,1.34033203125E-5,47,27,56,57242,16765234,5973,6880,5654,1878,3354,965,Tag0,unknown
1545074288177,0,123,2.70263671875E-5,47,27,56,57242,16765234,5973,6880,5654,1878,3354,965,Tag0,unknown
1545074288177,0,-107,-2.35107421875E-5,47,27,56,57242,16765234,5973,6880,5654,1878,3354,965,Tag0,unknown
1545074288191,0,109,2.39501953125E-5,47,27,56,57242,16765234,5973,6880,5654,1878,3354,965,Tag0,unknown
1545074288191,0,65,1.42822265625E-5,47,27,56,57242,16765234,5973,6880,5654,1878,3354,965,Tag0,unknown
1545074288191,0,72,1.58203125E-5,47,27,56,57242,16765234,5973,6880,5654,1878,3354,965,Tag0,unknown
1545074288192,0,123,2.70263671875E-5,47,27,56,57242,16765234,5973,6880,5654,1878,3354,965,Tag0,unknown
1545074288195,0,-115,-2.52685546875E-5,47,27,56,57242,16765234,5973,6880,5654,1878,3354,965,Tag0,unknown
1545074288195,0,101,2.2192382812500002E-5,47,27,56,57242,16765234,5973,6880,5654,1878,3354,965,Tag0,unknown
1545074288210,0,53,1.1645507812500002E-5,47,27,56,57242,16765234,5973,6880,5654,1878,3354,965,Tag0,unknown
1545074288210,0,54,1.1865234375000001E-5,47,27,56,57242,16765234,5973,6880,5654,1878,3354,965,Tag0,unknown
1545074288210,0,101,2.2192382812500002E-5,47,27,56,57242,16765234,5973,6880,5654,1878,3354,965,Tag0,unknown
1545074288211,0,115,2.52685546875E-5,47,27,56,57242,16765234,5973,6880,5654,1878,3354,965,Tag0,unknown
1545074288212,0,77,1.69189453125E-5,47,27,56,57242,16765234,5973,6880,5654,1878,3354,965,Tag0,unknown
1545074288212,0,45,9.8876953125E-6,47,27,56,57242,16765234,5973,6880,5654,1878,3354,965,Tag0,unknown
1545074288212,0,67,1.4721679687500002E-5,47,27,56,57242,16765234,5973,6880,5654,1878,3354,965,Tag0,unknown
1545074288212,0,125,2.74658203125E-5,47,27,56,57242,16765234,5973,6880,5654,1878,3354,965,Tag0,unknown
1545074288213,0,-108,-2.3730468750000002E-5,47,27,56,57242,16765234,5973,6880,5654,1878,3354,965,Tag0,unknown
1545074288214,0,117,2.5708007812499998E-5,47,27,56,57242,16765234,5973,6880,5654,1878,3354,965,Tag0,unknown
1545074288214,0,74,1.6259765625E-5,47,27,56,57242,16765234,5973,6880,5654,1878,3354,965,Tag0,unknown
1545074288226,0,73,1.6040039062500002E-5,47,27,56,57242,16765234,5973,6880,5654,1878,3354,965,Tag0,unknown
1545074288226,0,124,2.724609375E-5,47,27,56,57242,16765234,5973,6880,5654,1878,3354,965,Tag0,unknown
1545074288226,0,-91,-1.99951171875E-5,47,27,56,57242,16765234,5973,6880,5654,1878,3354,965,Tag0,unknown
1545074288229,0,-109,-2.39501953125E-5,47,27,56,57242,16765234,5973,6880,5654,1878,3354,965,Tag0,unknown
1545074288230,0,106,2.3291015625000003E-5,47,27,56,57242,16765234,5973,6880,5654,1878,3354,965,Tag0,unknown
1545074288230,0,97,2.13134765625E-5,47,27,56,57242,16765234,5973,6880,5654,1878,3354,965,Tag0,unknown
1545074288230,0,-126,-2.7685546875E-5,47,27,56,57242,16765234,5973,6880,5654,1878,3354,965,Tag0,unknown
1545074288230,0,-102,-2.2412109374999998E-5,47,27,56,57242,16765234,5973,6880,5654,1878,3354,965,Tag0,unknown
1545074288243,0,-127,-2.79052734375E-5,47,27,56,57242,16765234,5973,6880,5654,1878,3354,965,Tag0,unknown
1545074288243,0,74,1.6259765625E-5,47,27,56,57242,16765234,5973,6880,5654,1878,3354,965,Tag0,unknown
1545074288243,0,60,1.318359375E-5,47,27,56,57242,16765234,5973,6880,5654,1878,3354,965,Tag0,unknown
1545074288244,0,108,2.3730468750000002E-5,47,27,56,57242,16765234,5973,6880,5654,1878,3354,965,Tag0,unknown
1545074288245,0,-107,-2.35107421875E-5,47,27,56,57242,16765234,5973,6880,5654,1878,3354,965,Tag0,unknown
1545074288245,0,115,2.52685546875E-5,47,27,56,57242,16765234,5973,6880,5654,1878,3354,965,Tag0,unknown
1545074288245,0,53,1.1645507812500002E-5,47,27,56,57242,16765234,5973,6880,5654,1878,3354,965,Tag0,unknown
1545074288246,0,27,5.9326171875000005E-6,47,27,56,57242,16765234,5973,6880,5654,1878,3354,965,Tag0,unknown
1545074288246,0,55,1.20849609375E-5,47,27,56,57242,16765234,5973,6880,5654,1878,3354,965,Tag0,unknown
1545074288258,0,100,2.197265625E-5,47,27,56,57242,16765234,5973,6880,5654,1878,3354,965,Tag0,unknown
1545074288261,0,103,2.26318359375E-5,47,27,56,57242,16765234,5973,6880,5654,1878,3354,965,Tag0,unknown
1545074288274,0,76,1.669921875E-5,47,27,56,57242,16765234,5973,6880,5654,1878,3354,965,Tag0,unknown
1545074288274,0,48,1.0546875E-5,47,27,56,57242,16765234,5973,6880,5654,1878,3354,965,Tag0,unknown
1545074288274,0,44,9.66796875E-6,47,27,56,57242,16765234,5973,6880,5654,1878,3354,965,Tag0,unknown
1545074288275,0,72,1.58203125E-5,47,27,56,57242,16765234,5973,6880,5654,1878,3354,965,Tag0,unknown
1545074288275,0,67,1.4721679687500002E-5,47,27,56,57242,16765234,5973,6880,5654,1878,3354,965,Tag0,unknown
1545074288275,0,12,2.63671875E-6,47,27,56,57242,16765234,5973,6880,5654,1878,3354,965,Tag0,unknown
1545074288275,0,-284,-6.240234375E-5,47,27,56,57242,16765234,5973,6880,5654,1878,3354,965,Tag0,unknown
1545074288275,0,-269,-5.9106445312499996E-5,47,27,56,57242,16765234,5973,6880,5654,1878,3354,965,Tag0,unknown
1545074288275,0,39,8.5693359375E-6,47,27,56,57242,16765234,5973,6880,5654,1878,3354,965,Tag0,unknown
1545074288276,0,64,1.40625E-5,47,27,56,57242,16765234,5973,6880,5654,1878,3354,965,Tag0,unknown
1545074288276,0,22,4.833984375E-6,47,27,56,57242,16765234,5973,6880,5654,1878,3354,965,Tag0,unknown
1545074288276,0,-290,-6.3720703125E-5,47,27,56,57242,16765234,5973,6880,5654,1878,3354,965,Tag0,unknown
1545074288276,0,-294,-6.4599609375E-5,47,27,56,57242,16765234,5973,6880,5654,1878,3354,965,Tag0,unknown
1545074288277,0,7,1.5380859375E-6,47,27,56,57242,16765234,5973,6880,5654,1878,3354,965,Tag0,unknown
1545074288290,0,36,7.91015625E-6,47,27,56,57242,16765234,5973,6880,5654,1878,3354,965,Tag0,unknown
1545074288291,0,20,4.39453125E-6,47,27,56,57242,16765234,5973,6880,5654,1878,3354,965,Tag0,unknown
1545074288291,0,-260,-5.712890625E-5,47,27,56,57242,16765234,5973,6880,5654,1878,3354,965,Tag0,unknown
1545074288291,0,2,4.39453125E-7,47,27,56,57242,16765234,5973,6880,5654,1878,3354,965,Tag0,unknown
1545074288294,0,49,1.07666015625E-5,47,27,56,57242,16765234,5973,6880,5654,1878,3354,965,Tag0,unknown
1545074288294,0,82,1.8017578124999998E-5,47,27,56,57242,16765234,5973,6880,5654,1878,3354,965,Tag0,unknown
1545074288295,0,59,1.29638671875E-5,47,27,56,57242,16765234,5973,6880,5654,1878,3354,965,Tag0,unknown
1545074288295,0,17,3.7353515625000003E-6,47,27,56,57242,16765234,5973,6880,5654,1878,3354,965,Tag0,unknown
1545074288311,0,3,6.591796875E-7,47,27,56,57242,16765234,5973,6880,5654,1878,3354,965,Tag0,unknown
1545074288311,0,55,1.20849609375E-5,47,27,56,57242,16765234,5973,6880,5654,1878,3354,965,Tag0,unknown
1545074288311,0,107,2.35107421875E-5,47,27,56,57242,16765234,5973,6880,5654,1878,3354,965,Tag0,unknown
1545074288311,0,88,1.93359375E-5,47,27,56,57242,16765234,5973,6880,5654,1878,3354,965,Tag0,unknown
1545074288311,0,36,7.91015625E-6,47,27,56,57242,16765234,5973,6880,5654,1878,3354,965,Tag0,unknown
1545074288312,0,26,5.712890625E-6,47,27,56,57242,16765234,5973,6880,5654,1878,3354,965,Tag0,unknown
1545074288312,0,80,1.7578125E-5,47,27,56,57242,16765234,5973,6880,5654,1878,3354,965,Tag0,unknown
1545074288312,0,-125,-2.74658203125E-5,47,27,56,57242,16765234,5973,6880,5654,1878,3354,965,Tag0,unknown
1545074288312,0,112,2.4609375E-5,47,27,56,57242,16765234,5973,6880,5654,1878,3354,965,Tag0,unknown
1545074288312,0,50,1.0986328125E-5,47,27,56,57242,16765234,5973,6880,5654,1878,3354,965,Tag0,unknown
1545074288313,0,28,6.15234375E-6,47,27,56,57242,16765234,5973,6880,5654,1878,3354,965,Tag0,unknown
1545074288337,0,70,1.5380859375E-5,47,27,56,57242,16765234,5973,6880,5654,1878,3354,965,Tag0,unknown
1545074288340,0,121,2.6586914062500003E-5,47,27,56,57242,16765234,5973,6880,5654,1878,3354,965,Tag0,unknown
1545074288341,0,124,2.724609375E-5,47,27,56,57242,16765234,5973,6880,5654,1878,3354,965,Tag0,unknown
1545074288341,0,83,1.82373046875E-5,47,27,56,57242,16765234,5973,6880,5654,1878,3354,965,Tag0,unknown
1545074288341,0,53,1.1645507812500002E-5,47,27,56,57242,16765234,5973,6880,5654,1878,3354,965,Tag0,unknown
1545074288341,0,80,1.7578125E-5,47,27,56,57242,16765234,5973,6880,5654,1878,3354,965,Tag0,unknown
1545074288341,0,118,2.5927734375E-5,47,27,56,57242,16765234,5973,6880,5654,1878,3354,965,Tag0,unknown
1545074288342,0,114,2.5048828125000003E-5,47,27,56,57242,16765234,5973,6880,5654,1878,3354,965,Tag0,unknown
1545074288342,0,65,1.42822265625E-5,47,27,56,57242,16765234,5973,6880,5654,1878,3354,965,Tag0,unknown
1545074288342,0,27,5.9326171875000005E-6,47,27,56,57242,16765234,5973,6880,5654,1878,3354,965,Tag0,unknown
1545074288342,0,42,9.228515625000002E-6,47,27,56,57242,16765234,5973,6880,5654,1878,3354,965,Tag0,unknown
1545074288346,0,97,2.13134765625E-5,47,27,56,57242,16765234,5973,6880,5654,1878,3354,965,Tag0,unknown
1545074288346,0,118,2.5927734375E-5,47,27,56,57242,16765234,5973,6880,5654,1878,3354,965,Tag0,unknown
1545074288347,0,87,1.91162109375E-5,47,27,56,57242,16765234,5973,6880,5654,1878,3354,965,Tag0,unknown
1545074288347,0,51,1.1206054687499999E-5,47,27,56,57242,16765234,5973,6880,5654,1878,3354,965,Tag0,unknown
1545074288347,0,59,1.29638671875E-5,47,27,56,57242,16765234,5973,6880,5654,1878,3354,965,Tag0,unknown
1545074288347,0,114,2.5048828125000003E-5,47,27,56,57242,16765234,5973,6880,5654,1878,3354,965,Tag0,unknown
1545074288359,0,-112,-2.4609375E-5,47,27,56,57242,16765234,5973,6880,5654,1878,3354,965,Tag0,unknown
1545074288360,0,106,2.3291015625000003E-5,47,27,56,57242,16765234,5973,6880,5654,1878,3354,965,Tag0,unknown
1545074288361,0,55,1.20849609375E-5,47,27,56,57242,16765234,5973,6880,5654,1878,3354,965,Tag0,unknown
1545074288361,0,52,1.142578125E-5,47,27,56,57242,16765234,5973,6880,5654,1878,3354,965,Tag0,unknown
1545074288362,0,86,1.8896484375000003E-5,47,27,56,57242,16765234,5973,6880,5654,1878,3354,965,Tag0,unknown
1545074288362,0,97,2.13134765625E-5,47,27,56,57242,16765234,5973,6880,5654,1878,3354,965,Tag0,unknown
1545074288362,0,57,1.2524414062500001E-5,47,27,56,57242,16765234,5973,6880,5654,1878,3354,965,Tag0,unknown
1545074288362,0,9,1.9775390625E-6,47,27,56,57242,16765234,5973,6880,5654,1878,3354,965,Tag0,unknown
1545074288376,0,11,2.4169921875E-6,47,27,56,57242,16765234,5973,6880,5654,1878,3354,965,Tag0,unknown
1545074288376,0,71,1.56005859375E-5,47,27,56,57242,16765234,5973,6880,5654,1878,3354,965,Tag0,unknown
1545074288376,0,115,2.52685546875E-5,47,27,56,57242,16765234,5973,6880,5654,1878,3354,965,Tag0,unknown
1545074288377,0,101,2.2192382812500002E-5,47,27,56,57242,16765234,5973,6880,5654,1878,3354,965,Tag0,unknown
1545074288380,0,53,1.1645507812500002E-5,47,27,56,57242,16765234,5973,6880,5654,1878,3354,965,Tag0,unknown
1545074288381,0,29,6.3720703125E-6,47,27,56,57242,16765234,5973,6880,5654,1878,3354,965,Tag0,unknown
1545074288381,0,72,1.58203125E-5,47,27,56,57242,16765234,5973,6880,5654,1878,3354,965,Tag0,unknown
1545074288381,0,119,2.6147460937500004E-5,47,27,56,57242,16765234,5973,6880,5654,1878,3354,965,Tag0,unknown
1545074288393,0,114,2.5048828125000003E-5,47,27,56,57242,16765234,5973,6880,5654,1878,3354,965,Tag0,unknown
1545074288393,0,81,1.77978515625E-5,47,27,56,57242,16765234,5973,6880,5654,1878,3354,965,Tag0,unknown
1545074288393,0,57,1.2524414062500001E-5,47,27,56,57242,16765234,5973,6880,5654,1878,3354,965,Tag0,unknown
1545074288393,0,75,1.64794921875E-5,47,27,56,57242,16765234,5973,6880,5654,1878,3354,965,Tag0,unknown
1545074288394,0,106,2.3291015625000003E-5,47,27,56,57242,16765234,5973,6880,5654,1878,3354,965,Tag0,unknown
1545074288394,0,92,2.021484375E-5,47,27,56,57242,16765234,5973,6880,5654,1878,3354,965,Tag0,unknown
1545074288394,0,53,1.1645507812500002E-5,47,27,56,57242,16765234,5973,6880,5654,1878,3354,965,Tag0,unknown
1545074288395,0,39,8.5693359375E-6,47,27,56,57242,16765234,5973,6880,5654,1878,3354,965,Tag0,unknown
1545074288409,0,66,1.4501953125E-5,47,27,56,57242,16765234,5973,6880,5654,1878,3354,965,Tag0,unknown
1545074288410,0,97,2.13134765625E-5,47,27,56,57242,16765234,5973,6880,5654,1878,3354,965,Tag0,unknown
1545074288410,0,89,1.95556640625E-5,47,27,56,57242,16765234,5973,6880,5654,1878,3354,965,Tag0,unknown
1545074288411,0,57,1.2524414062500001E-5,47,27,56,57242,16765234,5973,6880,5654,1878,3354,965,Tag0,unknown
1545074288411,0,24,5.2734375E-6,47,27,56,57242,16765234,5973,6880,5654,1878,3354,965,Tag0,unknown
1545074288414,0,48,1.0546875E-5,47,27,56,57242,16765234,5973,6880,5654,1878,3354,965,Tag0,unknown
1545074288414,0,107,2.35107421875E-5,47,27,56,57242,16765234,5973,6880,5654,1878,3354,965,Tag0,unknown
1545074288414,0,120,2.63671875E-5,47,27,56,57242,16765234,5973,6880,5654,1878,3354,965,Tag0,unknown
1545074288414,0,83,1.82373046875E-5,47,27,56,57242,16765234,5973,6880,5654,1878,3354,965,Tag0,unknown
1545074288424,0,53,1.1645507812500002E-5,47,27,56,57242,16765234,5973,6880,5654,1878,3354,965,Tag0,unknown
1545074288424,0,73,1.6040039062500002E-5,47,27,56,57242,16765234,5973,6880,5654,1878,3354,965,Tag0,unknown
1545074288425,0,120,2.63671875E-5,47,27,56,57242,16765234,5973,6880,5654,1878,3354,965,Tag0,unknown
1545074288425,0,120,2.63671875E-5,47,27,56,57242,16765234,5973,6880,5654,1878,3354,965,Tag0,unknown
1545074288425,0,73,1.6040039062500002E-5,47,27,56,57242,16765234,5973,6880,5654,1878,3354,965,Tag0,unknown
1545074288425,0,39,8.5693359375E-6,47,27,56,57242,16765234,5973,6880,5654,1878,3354,965,Tag0,unknown
1545074288426,0,56,1.23046875E-5,47,27,56,57242,16765234,5973,6880,5654,1878,3354,965,Tag0,unknown
1545074288444,0,108,2.3730468750000002E-5,47,27,56,57242,16765234,5973,6880,5654,1878,3354,965,Tag0,unknown
1545074288444,0,121,2.6586914062500003E-5,47,27,56,57242,16765234,5973,6880,5654,1878,3354,965,Tag0,unknown
1545074288444,0,80,1.7578125E-5,47,27,56,57242,16765234,5973,6880,5654,1878,3354,965,Tag0,unknown
1545074288445,0,27,5.9326171875000005E-6,47,27,56,57242,16765234,5973,6880,5654,1878,3354,965,Tag0,unknown
1545074288445,0,22,4.833984375E-6,47,27,56,57242,16765234,5973,6880,5654,1878,3354,965,Tag0,unknown
1545074288445,0,53,1.1645507812500002E-5,47,27,56,57242,16765234,5973,6880,5654,1878,3354,965,Tag0,unknown
1545074288445,0,65,1.42822265625E-5,47,27,56,57242,16765234,5973,6880,5654,1878,3354,965,Tag0,unknown
1545074288448,0,28,6.15234375E-6,47,27,56,57242,16765234,5973,6880,5654,1878,3354,965,Tag0,unknown
1545074288448,0,-273,-5.998535156250001E-5,47,27,56,57242,16765234,5973,6880,5654,1878,3354,965,Tag0,unknown
1545074288449,0,-269,-5.9106445312499996E-5,47,27,56,57242,16765234,5973,6880,5654,1878,3354,965,Tag0,unknown
1545074288458,0,37,8.1298828125E-6,47,27,56,57242,16765234,5973,6880,5654,1878,3354,965,Tag0,unknown
1545074288458,0,65,1.42822265625E-5,47,27,56,57242,16765234,5973,6880,5654,1878,3354,965,Tag0,unknown
1545074288458,0,28,6.15234375E-6,47,27,56,57242,16765234,5973,6880,5654,1878,3354,965,Tag0,unknown
1545074288458,0,-267,-5.86669921875E-5,47,27,56,57242,16765234,5973,6880,5654,1878,3354,965,Tag0,unknown
1545074288458,0,8,1.7578125E-6,47,27,56,57242,16765234,5973,6880,5654,1878,3354,965,Tag0,unknown
1545074288459,0,85,1.86767578125E-5,47,27,56,57242,16765234,5973,6880,5654,1878,3354,965,Tag0,unknown
1545074288459,0,124,2.724609375E-5,47,27,56,57242,16765234,5973,6880,5654,1878,3354,965,Tag0,unknown
1545074288487,0,81,1.77978515625E-5,47,27,56,57242,16765234,5973,6880,5654,1878,3354,965,Tag0,unknown
1545074288488,0,25,5.4931640625E-6,47,27,56,57242,16765234,5973,6880,5654,1878,3354,965,Tag0,unknown
1545074288488,0,26,5.712890625E-6,47,27,56,57242,16765234,5973,6880,5654,1878,3354,965,Tag0,unknown
1545074288488,0,75,1.64794921875E-5,47,27,56,57242,16765234,5973,6880,5654,1878,3354,965,Tag0,unknown
1545074288489,0,102,2.2412109374999998E-5,47,27,56,57242,16765234,5973,6880,5654,1878,3354,965,Tag0,unknown
1545074288489,0,57,1.2524414062500001E-5,47,27,56,57242,16765234,5973,6880,5654,1878,3354,965,Tag0,unknown
1545074288489,0,-268,-5.8886718750000006E-5,47,27,56,57242,16765234,5973,6880,5654,1878,3354,965,Tag0,unknown
1545074288489,0,-305,-6.70166015625E-5,47,27,56,57242,16765234,5973,6880,5654,1878,3354,965,Tag0,unknown
1545074288489,0,-268,-5.8886718750000006E-5,47,27,56,57242,16765234,5973,6880,5654,1878,3354,965,Tag0,unknown
1545074288490,0,43,9.448242187500001E-6,47,27,56,57242,16765234,5973,6880,5654,1878,3354,965,Tag0,unknown
1545074288490,0,50,1.0986328125E-5,47,27,56,57242,16765234,5973,6880,5654,1878,3354,965,Tag0,unknown
1545074288490,0,9,1.9775390625E-6,47,27,56,57242,16765234,5973,6880,5654,1878,3354,965,Tag0,unknown
1545074288490,0,-269,-5.9106445312499996E-5,47,27,56,57242,16765234,5973,6880,5654,1878,3354,965,Tag0,unknown
1545074288490,0,27,5.9326171875000005E-6,47,27,56,57242,16765234,5973,6880,5654,1878,3354,965,Tag0,unknown
1545074288490,0,100,2.197265625E-5,47,27,56,57242,16765234,5973,6880,5654,1878,3354,965,Tag0,unknown
1545074288491,0,102,2.2412109374999998E-5,47,27,56,57242,16765234,5973,6880,5654,1878,3354,965,Tag0,unknown
1545074288493,0,49,1.07666015625E-5,47,27,56,57242,16765234,5973,6880,5654,1878,3354,965,Tag0,unknown
1545074288493,0,12,2.63671875E-6,47,27,56,57242,16765234,5973,6880,5654,1878,3354,965,Tag0,unknown
1545074288509,0,23,5.0537109375E-6,47,27,56,57242,16765234,5973,6880,5654,1878,3354,965,Tag0,unknown
1545074288509,0,56,1.23046875E-5,47,27,56,57242,16765234,5973,6880,5654,1878,3354,965,Tag0,unknown
1545074288510,0,61,1.34033203125E-5,47,27,56,57242,16765234,5973,6880,5654,1878,3354,965,Tag0,unknown
1545074288510,0,22,4.833984375E-6,47,27,56,57242,16765234,5973,6880,5654,1878,3354,965,Tag0,unknown
1545074288510,0,-266,-5.8447265625E-5,47,27,56,57242,16765234,5973,6880,5654,1878,3354,965,Tag0,unknown
1545074288511,0,11,2.4169921875E-6,47,27,56,57242,16765234,5973,6880,5654,1878,3354,965,Tag0,unknown
1545074288511,0,65,1.42822265625E-5,47,27,56,57242,16765234,5973,6880,5654,1878,3354,965,Tag0,unknown
1545074288512,0,67,1.4721679687500002E-5,47,27,56,57242,16765234,5973,6880,5654,1878,3354,965,Tag0,unknown
1545074288512,0,26,5.712890625E-6,47,27,56,57242,16765234,5973,6880,5654,1878,3354,965,Tag0,unknown
1545074288523,0,5,1.0986328125E-6,47,27,56,57242,16765234,5973,6880,5654,1878,3354,965,Tag0,unknown
1545074288524,0,38,8.349609375E-6,47,27,56,57242,16765234,5973,6880,5654,1878,3354,965,Tag0,unknown
1545074288524,0,97,2.13134765625E-5,47,27,56,57242,16765234,5973,6880,5654,1878,3354,965,Tag0,unknown
1545074288524,0,114,2.5048828125000003E-5,47,27,56,57242,16765234,5973,6880,5654,1878,3354,965,Tag0,unknown
1545074288525,0,72,1.58203125E-5,47,27,56,57242,16765234,5973,6880,5654,1878,3354,965,Tag0,unknown
1545074288525,0,21,4.614257812500001E-6,47,27,56,57242,16765234,5973,6880,5654,1878,3354,965,Tag0,unknown
1545074288542,0,27,5.9326171875000005E-6,47,27,56,57242,16765234,5973,6880,5654,1878,3354,965,Tag0,unknown
1545074288543,0,90,1.9775390625E-5,47,27,56,57242,16765234,5973,6880,5654,1878,3354,965,Tag0,unknown
1545074288543,0,123,2.70263671875E-5,47,27,56,57242,16765234,5973,6880,5654,1878,3354,965,Tag0,unknown
1545074288543,0,75,1.64794921875E-5,47,27,56,57242,16765234,5973,6880,5654,1878,3354,965,Tag0,unknown
1545074288543,0,-261,-5.73486328125E-5,47,27,56,57242,16765234,5973,6880,5654,1878,3354,965,Tag0,unknown
1545074288544,0,-289,-6.35009765625E-5,47,27,56,57242,16765234,5973,6880,5654,1878,3354,965,Tag0,unknown
1545074288544,0,7,1.5380859375E-6,47,27,56,57242,16765234,5973,6880,5654,1878,3354,965,Tag0,unknown
1545074288544,0,43,9.448242187500001E-6,47,27,56,57242,16765234,5973,6880,5654,1878,3354,965,Tag0,unknown
1545074288545,0,34,7.4707031250000005E-6,47,27,56,57242,16765234,5973,6880,5654,1878,3354,965,Tag0,unknown
1545074288545,0,9,1.9775390625E-6,47,27,56,57242,16765234,5973,6880,5654,1878,3354,965,Tag0,unknown
1545074288545,0,24,5.2734375E-6,47,27,56,57242,16765234,5973,6880,5654,1878,3354,965,Tag0,unknown
1545074288557,0,76,1.669921875E-5,47,27,56,57242,16765234,5973,6880,5654,1878,3354,965,Tag0,unknown
1545074288557,0,106,2.3291015625000003E-5,47,27,56,57242,16765234,5973,6880,5654,1878,3354,965,Tag0,unknown
1545074288557,0,84,1.8457031250000004E-5,47,27,56,57242,16765234,5973,6880,5654,1878,3354,965,Tag0,unknown
1545074288558,0,44,9.66796875E-6,47,27,56,57242,16765234,5973,6880,5654,1878,3354,965,Tag0,unknown
1545074288558,0,48,1.0546875E-5,47,27,56,57242,16765234,5973,6880,5654,1878,3354,965,Tag0,unknown
1545074288558,0,97,2.13134765625E-5,47,27,56,57242,16765234,5973,6880,5654,1878,3354,965,Tag0,unknown
1545074288558,0,-121,-2.6586914062500003E-5,47,27,56,57242,16765234,5973,6880,5654,1878,3354,965,Tag0,unknown
1545074288558,0,113,2.48291015625E-5,47,27,56,57242,16765234,5973,6880,5654,1878,3354,965,Tag0,unknown
1545074288578,0,59,1.29638671875E-5,47,27,56,57242,16765234,5973,6880,5654,1878,3354,965,Tag0,unknown
1545074288579,0,27,5.9326171875000005E-6,47,27,56,57242,16765234,5973,6880,5654,1878,3354,965,Tag0,unknown
1545074288579,0,43,9.448242187500001E-6,47,27,56,57242,16765234,5973,6880,5654,1878,3354,965,Tag0,unknown
1545074288579,0,81,1.77978515625E-5,47,27,56,57242,16765234,5973,6880,5654,1878,3354,965,Tag0,unknown
1545074288579,0,68,1.4941406250000001E-5,47,27,56,57242,16765234,5973,6880,5654,1878,3354,965,Tag0,unknown
1545074288579,0,10,2.197265625E-6,47,27,56,57242,16765234,5973,6880,5654,1878,3354,965,Tag0,unknown
1545074288580,0,-280,-6.15234375E-5,47,27,56,57242,16765234,5973,6880,5654,1878,3354,965,Tag0,unknown
1545074288580,0,-261,-5.73486328125E-5,47,27,56,57242,16765234,5973,6880,5654,1878,3354,965,Tag0,unknown
1545074288580,0,37,8.1298828125E-6,47,27,56,57242,16765234,5973,6880,5654,1878,3354,965,Tag0,unknown
1545074288580,0,32,7.03125E-6,47,27,56,57242,16765234,5973,6880,5654,1878,3354,965,Tag0,unknown
1545074288580,0,-276,-6.064453125E-5,47,27,56,57242,16765234,5973,6880,5654,1878,3354,965,Tag0,unknown
1545074288593,0,-307,-6.74560546875E-5,47,27,56,57242,16765234,5973,6880,5654,1878,3354,965,Tag0,unknown
1545074288593,0,-283,-6.218261718750001E-5,47,27,56,57242,16765234,5973,6880,5654,1878,3354,965,Tag0,unknown
1545074288593,0,18,3.955078125E-6,47,27,56,57242,16765234,5973,6880,5654,1878,3354,965,Tag0,unknown
1545074288594,0,19,4.1748046875E-6,47,27,56,57242,16765234,5973,6880,5654,1878,3354,965,Tag0,unknown
1545074288594,0,-278,-6.108398437500001E-5,47,27,56,57242,16765234,5973,6880,5654,1878,3354,965,Tag0,unknown
1545074288594,0,-297,-6.525878906250001E-5,47,27,56,57242,16765234,5973,6880,5654,1878,3354,965,Tag0,unknown
1545074288594,0,-262,-5.7568359375E-5,47,27,56,57242,16765234,5973,6880,5654,1878,3354,965,Tag0,unknown
1545074288611,0,48,1.0546875E-5,47,27,56,57242,16765234,5973,6880,5654,1878,3354,965,Tag0,unknown
1545074288612,0,56,1.23046875E-5,47,27,56,57242,16765234,5973,6880,5654,1878,3354,965,Tag0,unknown
1545074288613,0,7,1.5380859375E-6,47,27,56,57242,16765234,5973,6880,5654,1878,3354,965,Tag0,unknown
1545074288613,0,-283,-6.218261718750001E-5,47,27,56,57242,16765234,5973,6880,5654,1878,3354,965,Tag0,unknown
1545074288613,0,-259,-5.69091796875E-5,47,27,56,57242,16765234,5973,6880,5654,1878,3354,965,Tag0,unknown
1545074288614,0,66,1.4501953125E-5,47,27,56,57242,16765234,5973,6880,5654,1878,3354,965,Tag0,unknown
1545074288614,0,92,2.021484375E-5,47,27,56,57242,16765234,5973,6880,5654,1878,3354,965,Tag0,unknown
1545074288614,0,53,1.1645507812500002E-5,47,27,56,57242,16765234,5973,6880,5654,1878,3354,965,Tag0,unknown
1545074288614,0,7,1.5380859375E-6,47,27,56,57242,16765234,5973,6880,5654,1878,3354,965,Tag0,unknown
1545074288625,0,11,2.4169921875E-6,47,27,56,57242,16765234,5973,6880,5654,1878,3354,965,Tag0,unknown
1545074288625,0,68,1.4941406250000001E-5,47,27,56,57242,16765234,5973,6880,5654,1878,3354,965,Tag0,unknown
1545074288625,0,91,1.99951171875E-5,47,27,56,57242,16765234,5973,6880,5654,1878,3354,965,Tag0,unknown
1545074288625,0,55,1.20849609375E-5,47,27,56,57242,16765234,5973,6880,5654,1878,3354,965,Tag0,unknown
1545074288626,0,8,1.7578125E-6,47,27,56,57242,16765234,5973,6880,5654,1878,3354,965,Tag0,unknown
1545074288626,0,9,1.9775390625E-6,47,27,56,57242,16765234,5973,6880,5654,1878,3354,965,Tag0,unknown
1545074288626,0,64,1.40625E-5,47,27,56,57242,16765234,5973,6880,5654,1878,3354,965,Tag0,unknown
1545074288641,0,98,2.1533203125E-5,47,27,56,57242,16765234,5973,6880,5654,1878,3354,965,Tag0,unknown
1545074288641,0,58,1.2744140625E-5,47,27,56,57242,16765234,5973,6880,5654,1878,3354,965,Tag0,unknown
1545074288641,0,-260,-5.712890625E-5,47,27,56,57242,16765234,5973,6880,5654,1878,3354,965,Tag0,unknown
1545074288642,0,-268,-5.8886718750000006E-5,47,27,56,57242,16765234,5973,6880,5654,1878,3354,965,Tag0,unknown
1545074288642,0,42,9.228515625000002E-6,47,27,56,57242,16765234,5973,6880,5654,1878,3354,965,Tag0,unknown
1545074288642,0,89,1.95556640625E-5,47,27,56,57242,16765234,5973,6880,5654,1878,3354,965,Tag0,unknown
1545074288642,0,70,1.5380859375E-5,47,27,56,57242,16765234,5973,6880,5654,1878,3354,965,Tag0,unknown
1545074288642,0,17,3.7353515625000003E-6,47,27,56,57242,16765234,5973,6880,5654,1878,3354,965,Tag0,unknown
1545074288662,0,0,0.0,47,27,56,57242,16765234,5973,6880,5654,1878,3354,965,Tag0,unknown
1545074288666,0,43,9.448242187500001E-6,47,27,56,57242,16765234,5973,6880,5654,1878,3354,965,Tag0,unknown
1545074288666,0,86,1.8896484375000003E-5,47,27,56,57242,16765234,5973,6880,5654,1878,3354,965,Tag0,unknown
1545074288667,0,67,1.4721679687500002E-5,47,27,56,57242,16765234,5973,6880,5654,1878,3354,965,Tag0,unknown
1545074288667,0,6,1.318359375E-6,47,27,56,57242,16765234,5973,6880,5654,1878,3354,965,Tag0,unknown
1545074288667,0,-263,-5.7788085937500005E-5,47,27,56,57242,16765234,5973,6880,5654,1878,3354,965,Tag0,unknown
1545074288667,0,43,9.448242187500001E-6,47,27,56,57242,16765234,5973,6880,5654,1878,3354,965,Tag0,unknown
1545074288668,0,92,2.021484375E-5,47,27,56,57242,16765234,5973,6880,5654,1878,3354,965,Tag0,unknown
1545074288668,0,75,1.64794921875E-5,47,27,56,57242,16765234,5973,6880,5654,1878,3354,965,Tag0,unknown
1545074288668,0,23,5.0537109375E-6,47,27,56,57242,16765234,5973,6880,5654,1878,3354,965,Tag0,unknown
1545074288669,0,-259,-5.69091796875E-5,47,27,56,57242,16765234,5973,6880,5654,1878,3354,965,Tag0,unknown
1545074288674,0,22,4.833984375E-6,47,27,56,57242,16765234,5973,6880,5654,1878,3354,965,Tag0,unknown
1545074288675,0,70,1.5380859375E-5,47,27,56,57242,16765234,5973,6880,5654,1878,3354,965,Tag0,unknown
1545074288675,0,73,1.6040039062500002E-5,47,27,56,57242,16765234,5973,6880,5654,1878,3354,965,Tag0,unknown
1545074288675,0,33,7.2509765625E-6,47,27,56,57242,16765234,5973,6880,5654,1878,3354,965,Tag0,unknown
1545074288676,0,5,1.0986328125E-6,47,27,56,57242,16765234,5973,6880,5654,1878,3354,965,Tag0,unknown
1545074288676,0,28,6.15234375E-6,47,27,56,57242,16765234,5973,6880,5654,1878,3354,965,Tag0,unknown
1545074288676,0,75,1.64794921875E-5,47,27,56,57242,16765234,5973,6880,5654,1878,3354,965,Tag0,unknown
1545074288691,0,73,1.6040039062500002E-5,47,27,56,57242,16765234,5973,6880,5654,1878,3354,965,Tag0,unknown
1545074288691,0,12,2.63671875E-6,47,27,56,57242,16765234,5973,6880,5654,1878,3354,965,Tag0,unknown
1545074288691,0,-299,-6.56982421875E-5,47,27,56,57242,16765234,5973,6880,5654,1878,3354,965,Tag0,unknown
1545074288692,0,-278,-6.108398437500001E-5,47,27,56,57242,16765234,5973,6880,5654,1878,3354,965,Tag0,unknown
1545074288692,0,59,1.29638671875E-5,47,27,56,57242,16765234,5973,6880,5654,1878,3354,965,Tag0,unknown
1545074288692,0,88,1.93359375E-5,47,27,56,57242,16765234,5973,6880,5654,1878,3354,965,Tag0,unknown
1545074288693,0,32,7.03125E-6,47,27,56,57242,16765234,5973,6880,5654,1878,3354,965,Tag0,unknown
1545074288693,0,-284,-6.240234375E-5,47,27,56,57242,16765234,5973,6880,5654,1878,3354,965,Tag0,unknown
1545074288710,0,-277,-6.0864257812500005E-5,47,27,56,57242,16765234,5973,6880,5654,1878,3354,965,Tag0,unknown
1545074288711,0,39,8.5693359375E-6,47,27,56,57242,16765234,5973,6880,5654,1878,3354,965,Tag0,unknown
1545074288711,0,81,1.77978515625E-5,47,27,56,57242,16765234,5973,6880,5654,1878,3354,965,Tag0,unknown
1545074288713,0,64,1.40625E-5,47,27,56,57242,16765234,5973,6880,5654,1878,3354,965,Tag0,unknown
1545074288713,0,32,7.03125E-6,47,27,56,57242,16765234,5973,6880,5654,1878,3354,965,Tag0,unknown
1545074288713,0,41,9.008789062499999E-6,47,27,56,57242,16765234,5973,6880,5654,1878,3354,965,Tag0,unknown
1545074288713,0,90,1.9775390625E-5,47,27,56,57242,16765234,5973,6880,5654,1878,3354,965,Tag0,unknown
1545074288714,0,116,2.548828125E-5,47,27,56,57242,16765234,5973,6880,5654,1878,3354,965,Tag0,unknown
1545074288714,0,93,2.04345703125E-5,47,27,56,57242,16765234,5973,6880,5654,1878,3354,965,Tag0,unknown
1545074288714,0,57,1.2524414062500001E-5,47,27,56,57242,16765234,5973,6880,5654,1878,3354,965,Tag0,unknown
1545074288714,0,41,9.008789062499999E-6,47,27,56,57242,16765234,5973,6880,5654,1878,3354,965,Tag0,unknown
1545074288727,0,75,1.64794921875E-5,47,27,56,57242,16765234,5973,6880,5654,1878,3354,965,Tag0,unknown
1545074288746,0,112,2.4609375E-5,54,41,56,204304,16772504,10147,16758460,7413,10658,3942,1727,Tag0,unknown
1545074288759,0,89,1.95556640625E-5,54,41,56,204304,16772504,10147,16758460,7413,10658,3942,1727,Tag0,unknown
1545074288759,0,52,1.142578125E-5,54,41,56,204304,16772504,10147,16758460,7413,10658,3942,1727,Tag0,unknown
1545074288759,0,51,1.1206054687499999E-5,54,41,56,204304,16772504,10147,16758460,7413,10658,3942,1727,Tag0,unknown
1545074288759,0,86,1.8896484375000003E-5,54,41,56,204304,16772504,10147,16758460,7413,10658,3942,1727,Tag0,unknown
1545074288760,0,102,2.2412109374999998E-5,54,41,56,204304,16772504,10147,16758460,7413,10658,3942,1727,Tag0,unknown
1545074288760,0,57,1.2524414062500001E-5,54,41,56,204304,16772504,10147,16758460,7413,10658,3942,1727,Tag0,unknown
1545074288760,0,-266,-5.8447265625E-5,54,41,56,204304,16772504,10147,16758460,7413,10658,3942,1727,Tag0,unknown
1545074288761,0,-301,-6.613769531250001E-5,54,41,56,204304,16772504,10147,16758460,7413,10658,3942,1727,Tag0,unknown
1545074288761,0,-281,-6.17431640625E-5,54,41,56,204304,16772504,10147,16758460,7413,10658,3942,1727,Tag0,unknown
1545074288761,0,8,1.7578125E-6,54,41,56,204304,16772504,10147,16758460,7413,10658,3942,1727,Tag0,unknown
1545074288761,0,-257,-5.64697265625E-5,54,41,56,204304,16772504,10147,16758460,7413,10658,3942,1727,Tag0,unknown
1545074288762,0,-296,-6.50390625E-5,54,41,56,204304,16772504,10147,16758460,7413,10658,3942,1727,Tag0,unknown
1545074288762,0,-329,-7.229003906250001E-5,54,41,56,204304,16772504,10147,16758460,7413,10658,3942,1727,Tag0,unknown
1545074288762,0,-322,-7.0751953125E-5,54,41,56,204304,16772504,10147,16758460,7413,10658,3942,1727,Tag0,unknown
1545074288762,0,-293,-6.43798828125E-5,54,41,56,204304,16772504,10147,16758460,7413,10658,3942,1727,Tag0,unknown
1545074288762,0,-305,-6.70166015625E-5,54,41,56,204304,16772504,10147,16758460,7413,10658,3942,1727,Tag0,unknown
1545074288763,0,-360,-7.91015625E-5,54,41,56,204304,16772504,10147,16758460,7413,10658,3942,1727,Tag0,unknown
1545074288763,0,-155,-3.40576171875E-5,54,41,56,204304,16772504,10147,16758460,7413,10658,3942,1727,Tag0,unknown
1545074288763,0,-138,-3.0322265625E-5,54,41,56,204304,16772504,10147,16758460,7413,10658,3942,1727,Tag0,unknown
1545074288763,0,-327,-7.18505859375E-5,54,41,56,204304,16772504,10147,16758460,7413,10658,3942,1727,Tag0,unknown
1545074288776,0,-307,-6.74560546875E-5,54,41,56,204304,16772504,10147,16758460,7413,10658,3942,1727,Tag0,unknown
1545074288776,0,-345,-7.58056640625E-5,54,41,56,204304,16772504,10147,16758460,7413,10658,3942,1727,Tag0,unknown
1545074288777,0,-374,-8.2177734375E-5,54,41,56,204304,16772504,10147,16758460,7413,10658,3942,1727,Tag0,unknown
1545074288777,0,-344,-7.558593750000001E-5,54,41,56,204304,16772504,10147,16758460,7413,10658,3942,1727,Tag0,unknown
1545074288777,0,-289,-6.35009765625E-5,54,41,56,204304,16772504,10147,16758460,7413,10658,3942,1727,Tag0,unknown
1545074288777,0,-273,-5.998535156250001E-5,54,41,56,204304,16772504,10147,16758460,7413,10658,3942,1727,Tag0,unknown
1545074288777,0,-298,-6.5478515625E-5,54,41,56,204304,16772504,10147,16758460,7413,10658,3942,1727,Tag0,unknown
1545074288777,0,-326,-7.163085937500001E-5,54,41,56,204304,16772504,10147,16758460,7413,10658,3942,1727,Tag0,unknown
1545074288778,0,-309,-6.78955078125E-5,54,41,56,204304,16772504,10147,16758460,7413,10658,3942,1727,Tag0,unknown
1545074288778,0,-259,-5.69091796875E-5,54,41,56,204304,16772504,10147,16758460,7413,10658,3942,1727,Tag0,unknown
1545074288778,0,9,1.9775390625E-6,54,41,56,204304,16772504,10147,16758460,7413,10658,3942,1727,Tag0,unknown
1545074288794,0,-280,-6.15234375E-5,54,41,56,204304,16772504,10147,16758460,7413,10658,3942,1727,Tag0,unknown
1545074288794,0,-307,-6.74560546875E-5,54,41,56,204304,16772504,10147,16758460,7413,10658,3942,1727,Tag0,unknown
1545074288795,0,-280,-6.15234375E-5,54,41,56,204304,16772504,10147,16758460,7413,10658,3942,1727,Tag0,unknown
1545074288795,0,43,9.448242187500001E-6,54,41,56,204304,16772504,10147,16758460,7413,10658,3942,1727,Tag0,unknown
1545074288795,0,74,1.6259765625E-5,54,41,56,204304,16772504,10147,16758460,7413,10658,3942,1727,Tag0,unknown
1545074288795,0,38,8.349609375E-6,54,41,56,204304,16772504,10147,16758460,7413,10658,3942,1727,Tag0,unknown
1545074288796,0,-262,-5.7568359375E-5,54,41,56,204304,16772504,10147,16758460,7413,10658,3942,1727,Tag0,unknown
1545074288796,0,-257,-5.64697265625E-5,54,41,56,204304,16772504,10147,16758460,7413,10658,3942,1727,Tag0,unknown
1545074288796,0,44,9.66796875E-6,54,41,56,204304,16772504,10147,16758460,7413,10658,3942,1727,Tag0,unknown
1545074288811,0,81,1.77978515625E-5,54,41,56,204304,16772504,10147,16758460,7413,10658,3942,1727,Tag0,unknown
1545074288811,0,57,1.2524414062500001E-5,54,41,56,204304,16772504,10147,16758460,7413,10658,3942,1727,Tag0,unknown
1545074288812,0,19,4.1748046875E-6,54,41,56,204304,16772504,10147,16758460,7413,10658,3942,1727,Tag0,unknown
1545074288812,0,24,5.2734375E-6,54,41,56,204304,16772504,10147,16758460,7413,10658,3942,1727,Tag0,unknown
1545074288812,0,76,1.669921875E-5,54,41,56,204304,16772504,10147,16758460,7413,10658,3942,1727,Tag0,unknown
1545074288812,0,116,2.548828125E-5,54,41,56,204304,16772504,10147,16758460,7413,10658,3942,1727,Tag0,unknown
1545074288813,0,92,2.021484375E-5,54,41,56,204304,16772504,10147,16758460,7413,10658,3942,1727,Tag0,unknown
1545074288813,0,41,9.008789062499999E-6,54,41,56,204304,16772504,10147,16758460,7413,10658,3942,1727,Tag0,unknown
1545074288814,0,32,7.03125E-6,54,41,56,204304,16772504,10147,16758460,7413,10658,3942,1727,Tag0,unknown
1545074288828,0,77,1.69189453125E-5,54,41,56,204304,16772504,10147,16758460,7413,10658,3942,1727,Tag0,unknown
1545074288829,0,124,2.724609375E-5,54,41,56,204304,16772504,10147,16758460,7413,10658,3942,1727,Tag0,unknown
1545074288830,0,108,2.3730468750000002E-5,54,41,56,204304,16772504,10147,16758460,7413,10658,3942,1727,Tag0,unknown
1545074288830,0,48,1.0546875E-5,54,41,56,204304,16772504,10147,16758460,7413,10658,3942,1727,Tag0,unknown
1545074288830,0,18,3.955078125E-6,54,41,56,204304,16772504,10147,16758460,7413,10658,3942,1727,Tag0,unknown
1545074288830,0,51,1.1206054687499999E-5,54,41,56,204304,16772504,10147,16758460,7413,10658,3942,1727,Tag0,unknown
1545074288830,0,100,2.197265625E-5,54,41,56,204304,16772504,10147,16758460,7413,10658,3942,1727,Tag0,unknown
1545074288840,0,101,2.2192382812500002E-5,54,41,56,204304,16772504,10147,16758460,7413,10658,3942,1727,Tag0,unknown
1545074288840,0,51,1.1206054687499999E-5,54,41,56,204304,16772504,10147,16758460,7413,10658,3942,1727,Tag0,unknown
1545074288840,0,19,4.1748046875E-6,54,41,56,204304,16772504,10147,16758460,7413,10658,3942,1727,Tag0,unknown
1545074288841,0,52,1.142578125E-5,54,41,56,204304,16772504,10147,16758460,7413,10658,3942,1727,Tag0,unknown
1545074288841,0,112,2.4609375E-5,54,41,56,204304,16772504,10147,16758460,7413,10658,3942,1727,Tag0,unknown
1545074288841,0,124,2.724609375E-5,54,41,56,204304,16772504,10147,16758460,7413,10658,3942,1727,Tag0,unknown
1545074288842,0,89,1.95556640625E-5,54,41,56,204304,16772504,10147,16758460,7413,10658,3942,1727,Tag0,unknown
1545074288857,0,65,1.42822265625E-5,54,41,56,204304,16772504,10147,16758460,7413,10658,3942,1727,Tag0,unknown
1545074288857,0,96,2.109375E-5,54,41,56,204304,16772504,10147,16758460,7413,10658,3942,1727,Tag0,unknown
1545074288857,0,-108,-2.3730468750000002E-5,54,41,56,204304,16772504,10147,16758460,7413,10658,3942,1727,Tag0,unknown
1545074288858,0,-119,-2.6147460937500004E-5,54,41,56,204304,16772504,10147,16758460,7413,10658,3942,1727,Tag0,unknown
1545074288858,0,68,1.4941406250000001E-5,54,41,56,204304,16772504,10147,16758460,7413,10658,3942,1727,Tag0,unknown
1545074288858,0,27,5.9326171875000005E-6,54,41,56,204304,16772504,10147,16758460,7413,10658,3942,1727,Tag0,unknown
1545074288859,0,59,1.29638671875E-5,54,41,56,204304,16772504,10147,16758460,7413,10658,3942,1727,Tag0,unknown
1545074288859,0,121,2.6586914062500003E-5,54,41,56,204304,16772504,10147,16758460,7413,10658,3942,1727,Tag0,unknown
1545074288859,0,-124,-2.724609375E-5,54,41,56,204304,16772504,10147,16758460,7413,10658,3942,1727,Tag0,unknown
1545074288873,0,82,1.8017578124999998E-5,54,41,56,204304,16772504,10147,16758460,7413,10658,3942,1727,Tag0,unknown
1545074288874,0,41,9.008789062499999E-6,54,41,56,204304,16772504,10147,16758460,7413,10658,3942,1727,Tag0,unknown
1545074288874,0,72,1.58203125E-5,54,41,56,204304,16772504,10147,16758460,7413,10658,3942,1727,Tag0,unknown
1545074288874,0,-117,-2.5708007812499998E-5,54,41,56,204304,16772504,10147,16758460,7413,10658,3942,1727,Tag0,unknown
1545074288874,0,-91,-1.99951171875E-5,54,41,56,204304,16772504,10147,16758460,7413,10658,3942,1727,Tag0,unknown
1545074288875,0,118,2.5927734375E-5,54,41,56,204304,16772504,10147,16758460,7413,10658,3942,1727,Tag0,unknown
1545074288875,0,50,1.0986328125E-5,54,41,56,204304,16772504,10147,16758460,7413,10658,3942,1727,Tag0,unknown
1545074288890,0,41,9.008789062499999E-6,54,41,56,204304,16772504,10147,16758460,7413,10658,3942,1727,Tag0,unknown
1545074288890,0,99,2.1752929687500003E-5,54,41,56,204304,16772504,10147,16758460,7413,10658,3942,1727,Tag0,unknown
1545074288891,0,-111,-2.43896484375E-5,54,41,56,204304,16772504,10147,16758460,7413,10658,3942,1727,Tag0,unknown
1545074288891,0,124,2.724609375E-5,54,41,56,204304,16772504,10147,16758460,7413,10658,3942,1727,Tag0,unknown
1545074288892,0,72,1.58203125E-5,54,41,56,204304,16772504,10147,16758460,7413,10658,3942,1727,Tag0,unknown
1545074288892,0,60,1.318359375E-5,54,41,56,204304,16772504,10147,16758460,7413,10658,3942,1727,Tag0,unknown
1545074288892,0,115,2.52685546875E-5,54,41,56,204304,16772504,10147,16758460,7413,10658,3942,1727,Tag0,unknown
1545074288892,0,-93,-2.04345703125E-5,54,41,56,204304,16772504,10147,16758460,7413,10658,3942,1727,Tag0,unknown
1545074288893,0,-118,-2.5927734375E-5,54,41,56,204304,16772504,10147,16758460,7413,10658,3942,1727,Tag0,unknown
1545074288893,0,75,1.64794921875E-5,54,41,56,204304,16772504,10147,16758460,7413,10658,3942,1727,Tag0,unknown
1545074288911,0,57,1.2524414062500001E-5,54,41,56,204304,16772504,10147,16758460,7413,10658,3942,1727,Tag0,unknown
1545074288912,0,96,2.109375E-5,54,41,56,204304,16772504,10147,16758460,7413,10658,3942,1727,Tag0,unknown
1545074288913,0,120,2.63671875E-5,54,41,56,204304,16772504,10147,16758460,7413,10658,3942,1727,Tag0,unknown
1545074288915,0,88,1.93359375E-5,54,41,56,204304,16772504,10147,16758460,7413,10658,3942,1727,Tag0,unknown
1545074288917,0,43,9.448242187500001E-6,54,41,56,204304,16772504,10147,16758460,7413,10658,3942,1727,Tag0,unknown
1545074288917,0,23,5.0537109375E-6,54,41,56,204304,16772504,10147,16758460,7413,10658,3942,1727,Tag0,unknown
1545074288917,0,49,1.07666015625E-5,54,41,56,204304,16772504,10147,16758460,7413,10658,3942,1727,Tag0,unknown
1545074288917,0,81,1.77978515625E-5,54,41,56,204304,16772504,10147,16758460,7413,10658,3942,1727,Tag0,unknown
1545074288918,0,59,1.29638671875E-5,54,41,56,204304,16772504,10147,16758460,7413,10658,3942,1727,Tag0,unknown
1545074288918,0,12,2.63671875E-6,54,41,56,204304,16772504,10147,16758460,7413,10658,3942,1727,Tag0,unknown
1545074288918,0,6,1.318359375E-6,54,41,56,204304,16772504,10147,16758460,7413,10658,3942,1727,Tag0,unknown
1545074288918,0,57,1.2524414062500001E-5,54,41,56,204304,16772504,10147,16758460,7413,10658,3942,1727,Tag0,unknown
1545074288925,0,109,2.39501953125E-5,54,41,56,204304,16772504,10147,16758460,7413,10658,3942,1727,Tag0,unknown
1545074288925,0,104,2.28515625E-5,54,41,56,204304,16772504,10147,16758460,7413,10658,3942,1727,Tag0,unknown
1545074288925,0,56,1.23046875E-5,54,41,56,204304,16772504,10147,16758460,7413,10658,3942,1727,Tag0,unknown
1545074288926,0,24,5.2734375E-6,54,41,56,204304,16772504,10147,16758460,7413,10658,3942,1727,Tag0,unknown
1545074288926,0,55,1.20849609375E-5,54,41,56,204304,16772504,10147,16758460,7413,10658,3942,1727,Tag0,unknown
1545074288946,0,122,2.6806640625E-5,54,41,56,204304,16772504,10147,16758460,7413,10658,3942,1727,Tag0,unknown
1545074288946,0,-117,-2.5708007812499998E-5,54,41,56,204304,16772504,10147,16758460,7413,10658,3942,1727,Tag0,unknown
1545074288947,0,90,1.9775390625E-5,54,41,56,204304,16772504,10147,16758460,7413,10658,3942,1727,Tag0,unknown
1545074288947,0,43,9.448242187500001E-6,54,41,56,204304,16772504,10147,16758460,7413,10658,3942,1727,Tag0,unknown
1545074288947,0,56,1.23046875E-5,54,41,56,204304,16772504,10147,16758460,7413,10658,3942,1727,Tag0,unknown
1545074288948,0,105,2.30712890625E-5,54,41,56,204304,16772504,10147,16758460,7413,10658,3942,1727,Tag0,unknown
1545074288948,0,-128,-2.8125E-5,54,41,56,204304,16772504,10147,16758460,7413,10658,3942,1727,Tag0,unknown
1545074288948,0,100,2.197265625E-5,54,41,56,204304,16772504,10147,16758460,7413,10658,3942,1727,Tag0,unknown
1545074288948,0,58,1.2744140625E-5,54,41,56,204304,16772504,10147,16758460,7413,10658,3942,1727,Tag0,unknown
1545074288949,0,64,1.40625E-5,54,41,56,204304,16772504,10147,16758460,7413,10658,3942,1727,Tag0,unknown
1545074288956,0,104,2.28515625E-5,54,41,56,204304,16772504,10147,16758460,7413,10658,3942,1727,Tag0,unknown
1545074288957,0,112,2.4609375E-5,54,41,56,204304,16772504,10147,16758460,7413,10658,3942,1727,Tag0,unknown
1545074288957,0,59,1.29638671875E-5,54,41,56,204304,16772504,10147,16758460,7413,10658,3942,1727,Tag0,unknown
1545074288957,0,3,6.591796875E-7,54,41,56,204304,16772504,10147,16758460,7413,10658,3942,1727,Tag0,unknown
1545074288958,0,5,1.0986328125E-6,54,41,56,204304,16772504,10147,16758460,7413,10658,3942,1727,Tag0,unknown
1545074288958,0,65,1.42822265625E-5,54,41,56,204304,16772504,10147,16758460,7413,10658,3942,1727,Tag0,unknown
1545074288958,0,102,2.2412109374999998E-5,54,41,56,204304,16772504,10147,16758460,7413,10658,3942,1727,Tag0,unknown
1545074288975,0,70,1.5380859375E-5,54,41,56,204304,16772504,10147,16758460,7413,10658,3942,1727,Tag0,unknown
1545074288976,0,10,2.197265625E-6,54,41,56,204304,16772504,10147,16758460,7413,10658,3942,1727,Tag0,unknown
1545074288976,0,1,2.197265625E-7,54,41,56,204304,16772504,10147,16758460,7413,10658,3942,1727,Tag0,unknown
1545074288977,0,67,1.4721679687500002E-5,54,41,56,204304,16772504,10147,16758460,7413,10658,3942,1727,Tag0,unknown
1545074288977,0,-122,-2.6806640625E-5,54,41,56,204304,16772504,10147,16758460,7413,10658,3942,1727,Tag0,unknown
1545074288977,0,121,2.6586914062500003E-5,54,41,56,204304,16772504,10147,16758460,7413,10658,3942,1727,Tag0,unknown
1545074288977,0,66,1.4501953125E-5,54,41,56,204304,16772504,10147,16758460,7413,10658,3942,1727,Tag0,unknown
1545074288977,0,36,7.91015625E-6,54,41,56,204304,16772504,10147,16758460,7413,10658,3942,1727,Tag0,unknown
1545074288978,0,56,1.23046875E-5,54,41,56,204304,16772504,10147,16758460,7413,10658,3942,1727,Tag0,unknown
1545074288978,0,91,1.99951171875E-5,54,41,56,204304,16772504,10147,16758460,7413,10658,3942,1727,Tag0,unknown
1545074288991,0,73,1.6040039062500002E-5,54,41,56,204304,16772504,10147,16758460,7413,10658,3942,1727,Tag0,unknown
1545074288991,0,21,4.614257812500001E-6,54,41,56,204304,16772504,10147,16758460,7413,10658,3942,1727,Tag0,unknown
1545074288991,0,4,8.7890625E-7,54,41,56,204304,16772504,10147,16758460,7413,10658,3942,1727,Tag0,unknown
1545074288992,0,51,1.1206054687499999E-5,54,41,56,204304,16772504,10147,16758460,7413,10658,3942,1727,Tag0,unknown
1545074288992,0,105,2.30712890625E-5,54,41,56,204304,16772504,10147,16758460,7413,10658,3942,1727,Tag0,unknown
1545074288992,0,96,2.109375E-5,54,41,56,204304,16772504,10147,16758460,7413,10658,3942,1727,Tag0,unknown
1545074288992,0,41,9.008789062499999E-6,54,41,56,204304,16772504,10147,16758460,7413,10658,3942,1727,Tag0,unknown
1545074288993,0,23,5.0537109375E-6,54,41,56,204304,16772504,10147,16758460,7413,10658,3942,1727,Tag0,unknown
1545074289009,0,74,1.6259765625E-5,54,41,56,204304,16772504,10147,16758460,7413,10658,3942,1727,Tag0,unknown
1545074289009,0,-123,-2.70263671875E-5,54,41,56,204304,16772504,10147,16758460,7413,10658,3942,1727,Tag0,unknown
1545074289010,0,117,2.5708007812499998E-5,54,41,56,204304,16772504,10147,16758460,7413,10658,3942,1727,Tag0,unknown
1545074289010,0,57,1.2524414062500001E-5,54,41,56,204304,16772504,10147,16758460,7413,10658,3942,1727,Tag0,unknown
1545074289010,0,23,5.0537109375E-6,54,41,56,204304,16772504,10147,16758460,7413,10658,3942,1727,Tag0,unknown
1545074289011,0,55,1.20849609375E-5,54,41,56,204304,16772504,10147,16758460,7413,10658,3942,1727,Tag0,unknown
1545074289011,0,107,2.35107421875E-5,54,41,56,204304,16772504,10147,16758460,7413,10658,3942,1727,Tag0,unknown
1545074289011,0,101,2.2192382812500002E-5,54,41,56,204304,16772504,10147,16758460,7413,10658,3942,1727,Tag0,unknown
1545074289011,0,37,8.1298828125E-6,54,41,56,204304,16772504,10147,16758460,7413,10658,3942,1727,Tag0,unknown
1545074289023,0,-261,-5.73486328125E-5,54,41,56,204304,16772504,10147,16758460,7413,10658,3942,1727,Tag0,unknown
1545074289023,0,7,1.5380859375E-6,54,41,56,204304,16772504,10147,16758460,7413,10658,3942,1727,Tag0,unknown
1545074289023,0,55,1.20849609375E-5,54,41,56,204304,16772504,10147,16758460,7413,10658,3942,1727,Tag0,unknown
1545074289024,0,75,1.64794921875E-5,54,41,56,204304,16772504,10147,16758460,7413,10658,3942,1727,Tag0,unknown
1545074289024,0,44,9.66796875E-6,54,41,56,204304,16772504,10147,16758460,7413,10658,3942,1727,Tag0,unknown
1545074289024,0,10,2.197265625E-6,54,41,56,204304,16772504,10147,16758460,7413,10658,3942,1727,Tag0,unknown
1545074289024,0,25,5.4931640625E-6,54,41,56,204304,16772504,10147,16758460,7413,10658,3942,1727,Tag0,unknown
1545074289025,0,81,1.77978515625E-5,54,41,56,204304,16772504,10147,16758460,7413,10658,3942,1727,Tag0,unknown
1545074289040,0,99,2.1752929687500003E-5,54,41,56,204304,16772504,10147,16758460,7413,10658,3942,1727,Tag0,unknown
1545074289040,0,54,1.1865234375000001E-5,54,41,56,204304,16772504,10147,16758460,7413,10658,3942,1727,Tag0,unknown
1545074289040,0,0,0.0,54,41,56,204304,16772504,10147,16758460,7413,10658,3942,1727,Tag0,unknown
1545074289040,0,-262,-5.7568359375E-5,54,41,56,204304,16772504,10147,16758460,7413,10658,3942,1727,Tag0,unknown
1545074289041,0,39,8.5693359375E-6,54,41,56,204304,16772504,10147,16758460,7413,10658,3942,1727,Tag0,unknown
1545074289041,0,69,1.51611328125E-5,54,41,56,204304,16772504,10147,16758460,7413,10658,3942,1727,Tag0,unknown
1545074289041,0,50,1.0986328125E-5,54,41,56,204304,16772504,10147,16758460,7413,10658,3942,1727,Tag0,unknown
1545074289042,0,20,4.39453125E-6,54,41,56,204304,16772504,10147,16758460,7413,10658,3942,1727,Tag0,unknown
1545074289062,0,29,6.3720703125E-6,54,41,56,204304,16772504,10147,16758460,7413,10658,3942,1727,Tag0,unknown
1545074289064,0,81,1.77978515625E-5,54,41,56,204304,16772504,10147,16758460,7413,10658,3942,1727,Tag0,unknown
1545074289064,0,101,2.2192382812500002E-5,54,41,56,204304,16772504,10147,16758460,7413,10658,3942,1727,Tag0,unknown
1545074289065,0,59,1.29638671875E-5,54,41,56,204304,16772504,10147,16758460,7413,10658,3942,1727,Tag0,unknown
1545074289065,0,4,8.7890625E-7,54,41,56,204304,16772504,10147,16758460,7413,10658,3942,1727,Tag0,unknown
1545074289065,0,-260,-5.712890625E-5,54,41,56,204304,16772504,10147,16758460,7413,10658,3942,1727,Tag0,unknown
1545074289065,0,51,1.1206054687499999E-5,54,41,56,204304,16772504,10147,16758460,7413,10658,3942,1727,Tag0,unknown
1545074289066,0,101,2.2192382812500002E-5,54,41,56,204304,16772504,10147,16758460,7413,10658,3942,1727,Tag0,unknown
1545074289066,0,96,2.109375E-5,54,41,56,204304,16772504,10147,16758460,7413,10658,3942,1727,Tag0,unknown
1545074289066,0,57,1.2524414062500001E-5,54,41,56,204304,16772504,10147,16758460,7413,10658,3942,1727,Tag0,unknown
1545074289074,0,49,1.07666015625E-5,54,41,56,204304,16772504,10147,16758460,7413,10658,3942,1727,Tag0,unknown
1545074289074,0,83,1.82373046875E-5,54,41,56,204304,16772504,10147,16758460,7413,10658,3942,1727,Tag0,unknown
1545074289075,0,117,2.5708007812499998E-5,54,41,56,204304,16772504,10147,16758460,7413,10658,3942,1727,Tag0,unknown
1545074289075,0,96,2.109375E-5,54,41,56,204304,16772504,10147,16758460,7413,10658,3942,1727,Tag0,unknown
1545074289075,0,41,9.008789062499999E-6,54,41,56,204304,16772504,10147,16758460,7413,10658,3942,1727,Tag0,unknown
1545074289076,0,10,2.197265625E-6,54,41,56,204304,16772504,10147,16758460,7413,10658,3942,1727,Tag0,unknown
1545074289076,0,38,8.349609375E-6,54,41,56,204304,16772504,10147,16758460,7413,10658,3942,1727,Tag0,unknown
1545074289092,0,76,1.669921875E-5,54,41,56,204304,16772504,10147,16758460,7413,10658,3942,1727,Tag0,unknown
1545074289092,0,64,1.40625E-5,54,41,56,204304,16772504,10147,16758460,7413,10658,3942,1727,Tag0,unknown
1545074289093,0,16,3.515625E-6,54,41,56,204304,16772504,10147,16758460,7413,10658,3942,1727,Tag0,unknown
1545074289093,0,-257,-5.64697265625E-5,54,41,56,204304,16772504,10147,16758460,7413,10658,3942,1727,Tag0,unknown
1545074289093,0,41,9.008789062499999E-6,54,41,56,204304,16772504,10147,16758460,7413,10658,3942,1727,Tag0,unknown
1545074289094,0,87,1.91162109375E-5,54,41,56,204304,16772504,10147,16758460,7413,10658,3942,1727,Tag0,unknown
1545074289094,0,81,1.77978515625E-5,54,41,56,204304,16772504,10147,16758460,7413,10658,3942,1727,Tag0,unknown
1545074289094,0,33,7.2509765625E-6,54,41,56,204304,16772504,10147,16758460,7413,10658,3942,1727,Tag0,unknown
1545074289094,0,1,2.197265625E-7,54,41,56,204304,16772504,10147,16758460,7413,10658,3942,1727,Tag0,unknown
1545074289108,0,27,5.9326171875000005E-6,54,41,56,204304,16772504,10147,16758460,7413,10658,3942,1727,Tag0,unknown
1545074289111,0,91,1.99951171875E-5,54,41,56,204304,16772504,10147,16758460,7413,10658,3942,1727,Tag0,unknown
1545074289112,0,116,2.548828125E-5,54,41,56,204304,16772504,10147,16758460,7413,10658,3942,1727,Tag0,unknown
1545074289113,0,86,1.8896484375000003E-5,54,41,56,204304,16772504,10147,16758460,7413,10658,3942,1727,Tag0,unknown
1545074289113,0,54,1.1865234375000001E-5,54,41,56,204304,16772504,10147,16758460,7413,10658,3942,1727,Tag0,unknown
1545074289114,0,64,1.40625E-5,54,41,56,204304,16772504,10147,16758460,7413,10658,3942,1727,Tag0,unknown
1545074289114,0,101,2.2192382812500002E-5,54,41,56,204304,16772504,10147,16758460,7413,10658,3942,1727,Tag0,unknown
1545074289114,0,108,2.3730468750000002E-5,54,41,56,204304,16772504,10147,16758460,7413,10658,3942,1727,Tag0,unknown
1545074289124,0,56,1.23046875E-5,54,41,56,204304,16772504,10147,16758460,7413,10658,3942,1727,Tag0,unknown
1545074289125,0,-260,-5.712890625E-5,54,41,56,204304,16772504,10147,16758460,7413,10658,3942,1727,Tag0,unknown
1545074289125,0,-264,-5.80078125E-5,54,41,56,204304,16772504,10147,16758460,7413,10658,3942,1727,Tag0,unknown
1545074289125,0,42,9.228515625000002E-6,54,41,56,204304,16772504,10147,16758460,7413,10658,3942,1727,Tag0,unknown
1545074289126,0,73,1.6040039062500002E-5,54,41,56,204304,16772504,10147,16758460,7413,10658,3942,1727,Tag0,unknown
1545074289126,0,53,1.1645507812500002E-5,54,41,56,204304,16772504,10147,16758460,7413,10658,3942,1727,Tag0,unknown
1545074289126,0,10,2.197265625E-6,54,41,56,204304,16772504,10147,16758460,7413,10658,3942,1727,Tag0,unknown
1545074289126,0,9,1.9775390625E-6,54,41,56,204304,16772504,10147,16758460,7413,10658,3942,1727,Tag0,unknown
1545074289127,0,60,1.318359375E-5,54,41,56,204304,16772504,10147,16758460,7413,10658,3942,1727,Tag0,unknown
1545074289142,0,98,2.1533203125E-5,54,41,56,204304,16772504,10147,16758460,7413,10658,3942,1727,Tag0,unknown
1545074289143,0,71,1.56005859375E-5,54,41,56,204304,16772504,10147,16758460,7413,10658,3942,1727,Tag0,unknown
1545074289143,0,29,6.3720703125E-6,54,41,56,204304,16772504,10147,16758460,7413,10658,3942,1727,Tag0,unknown
1545074289143,0,20,4.39453125E-6,54,41,56,204304,16772504,10147,16758460,7413,10658,3942,1727,Tag0,unknown
1545074289144,0,58,1.2744140625E-5,54,41,56,204304,16772504,10147,16758460,7413,10658,3942,1727,Tag0,unknown
1545074289144,0,99,2.1752929687500003E-5,54,41,56,204304,16772504,10147,16758460,7413,10658,3942,1727,Tag0,unknown
1545074289144,0,75,1.64794921875E-5,54,41,56,204304,16772504,10147,16758460,7413,10658,3942,1727,Tag0,unknown
1545074289160,0,27,5.9326171875000005E-6,54,41,56,204304,16772504,10147,16758460,7413,10658,3942,1727,Tag0,unknown
1545074289162,0,21,4.614257812500001E-6,54,41,56,204304,16772504,10147,16758460,7413,10658,3942,1727,Tag0,unknown
1545074289162,0,66,1.4501953125E-5,54,41,56,204304,16772504,10147,16758460,7413,10658,3942,1727,Tag0,unknown
1545074289162,0,99,2.1752929687500003E-5,54,41,56,204304,16772504,10147,16758460,7413,10658,3942,1727,Tag0,unknown
1545074289163,0,55,1.20849609375E-5,54,41,56,204304,16772504,10147,16758460,7413,10658,3942,1727,Tag0,unknown
1545074289163,0,-281,-6.17431640625E-5,54,41,56,204304,16772504,10147,16758460,7413,10658,3942,1727,Tag0,unknown
1545074289163,0,-329,-7.229003906250001E-5,54,41,56,204304,16772504,10147,16758460,7413,10658,3942,1727,Tag0,unknown
1545074289163,0,-311,-6.833496093750001E-5,54,41,56,204304,16772504,10147,16758460,7413,10658,3942,1727,Tag0,unknown
1545074289163,0,4,8.7890625E-7,54,41,56,204304,16772504,10147,16758460,7413,10658,3942,1727,Tag0,unknown
1545074289164,0,23,5.0537109375E-6,54,41,56,204304,16772504,10147,16758460,7413,10658,3942,1727,Tag0,unknown
1545074289164,0,-263,-5.7788085937500005E-5,54,41,56,204304,16772504,10147,16758460,7413,10658,3942,1727,Tag0,unknown
1545074289177,0,-286,-6.2841796875E-5,54,41,56,204304,16772504,10147,16758460,7413,10658,3942,1727,Tag0,unknown
1545074289177,0,-262,-5.7568359375E-5,54,41,56,204304,16772504,10147,16758460,7413,10658,3942,1727,Tag0,unknown
1545074289177,0,45,9.8876953125E-6,54,41,56,204304,16772504,10147,16758460,7413,10658,3942,1727,Tag0,unknown
1545074289177,0,49,1.07666015625E-5,54,41,56,204304,16772504,10147,16758460,7413,10658,3942,1727,Tag0,unknown
1545074289180,0,5,1.0986328125E-6,54,41,56,204304,16772504,10147,16758460,7413,10658,3942,1727,Tag0,unknown
1545074289181,0,-259,-5.69091796875E-5,54,41,56,204304,16772504,10147,16758460,7413,10658,3942,1727,Tag0,unknown
1545074289181,0,43,9.448242187500001E-6,54,41,56,204304,16772504,10147,16758460,7413,10658,3942,1727,Tag0,unknown
1545074289181,0,98,2.1533203125E-5,54,41,56,204304,16772504,10147,16758460,7413,10658,3942,1727,Tag0,unknown
1545074289181,0,86,1.8896484375000003E-5,54,41,56,204304,16772504,10147,16758460,7413,10658,3942,1727,Tag0,unknown
1545074289189,0,23,5.0537109375E-6,54,41,56,204304,16772504,10147,16758460,7413,10658,3942,1727,Tag0,unknown
1545074289189,0,-279,-6.13037109375E-5,54,41,56,204304,16772504,10147,16758460,7413,10658,3942,1727,Tag0,unknown
1545074289189,0,-268,-5.8886718750000006E-5,54,41,56,204304,16772504,10147,16758460,7413,10658,3942,1727,Tag0,unknown
1545074289190,0,37,8.1298828125E-6,54,41,56,204304,16772504,10147,16758460,7413,10658,3942,1727,Tag0,unknown
1545074289190,0,51,1.1206054687499999E-5,54,41,56,204304,16772504,10147,16758460,7413,10658,3942,1727,Tag0,unknown
1545074289190,0,10,2.197265625E-6,54,41,56,204304,16772504,10147,16758460,7413,10658,3942,1727,Tag0,unknown
1545074289207,0,-281,-6.17431640625E-5,54,41,56,204304,16772504,10147,16758460,7413,10658,3942,1727,Tag0,unknown
1545074289207,0,-264,-5.80078125E-5,54,41,56,204304,16772504,10147,16758460,7413,10658,3942,1727,Tag0,unknown
1545074289208,0,45,9.8876953125E-6,54,41,56,204304,16772504,10147,16758460,7413,10658,3942,1727,Tag0,unknown
1545074289208,0,81,1.77978515625E-5,54,41,56,204304,16772504,10147,16758460,7413,10658,3942,1727,Tag0,unknown
1545074289208,0,53,1.1645507812500002E-5,54,41,56,204304,16772504,10147,16758460,7413,10658,3942,1727,Tag0,unknown
1545074289208,0,11,2.4169921875E-6,54,41,56,204304,16772504,10147,16758460,7413,10658,3942,1727,Tag0,unknown
1545074289209,0,18,3.955078125E-6,54,41,56,204304,16772504,10147,16758460,7413,10658,3942,1727,Tag0,unknown
1545074289209,0,77,1.69189453125E-5,54,41,56,204304,16772504,10147,16758460,7413,10658,3942,1727,Tag0,unknown
1545074289209,0,113,2.48291015625E-5,54,41,56,204304,16772504,10147,16758460,7413,10658,3942,1727,Tag0,unknown
1545074289209,0,71,1.56005859375E-5,54,41,56,204304,16772504,10147,16758460,7413,10658,3942,1727,Tag0,unknown
1545074289227,0,4,8.7890625E-7,54,41,56,204304,16772504,10147,16758460,7413,10658,3942,1727,Tag0,unknown
1545074289227,0,-267,-5.86669921875E-5,54,41,56,204304,16772504,10147,16758460,7413,10658,3942,1727,Tag0,unknown
1545074289228,0,32,7.03125E-6,54,41,56,204304,16772504,10147,16758460,7413,10658,3942,1727,Tag0,unknown
1545074289228,0,73,1.6040039062500002E-5,54,41,56,204304,16772504,10147,16758460,7413,10658,3942,1727,Tag0,unknown
1545074289228,0,59,1.29638671875E-5,54,41,56,204304,16772504,10147,16758460,7413,10658,3942,1727,Tag0,unknown
1545074289228,0,25,5.4931640625E-6,54,41,56,204304,16772504,10147,16758460,7413,10658,3942,1727,Tag0,unknown
1545074289229,0,6,1.318359375E-6,54,41,56,204304,16772504,10147,16758460,7413,10658,3942,1727,Tag0,unknown
1545074289229,0,28,6.15234375E-6,54,41,56,204304,16772504,10147,16758460,7413,10658,3942,1727,Tag0,unknown
1545074289229,0,66,1.4501953125E-5,54,41,56,204304,16772504,10147,16758460,7413,10658,3942,1727,Tag0,unknown
1545074289240,0,50,1.0986328125E-5,54,41,56,204304,16772504,10147,16758460,7413,10658,3942,1727,Tag0,unknown
1545074289240,0,8,1.7578125E-6,54,41,56,204304,16772504,10147,16758460,7413,10658,3942,1727,Tag0,unknown
1545074289240,0,2,4.39453125E-7,54,41,56,204304,16772504,10147,16758460,7413,10658,3942,1727,Tag0,unknown
1545074289241,0,51,1.1206054687499999E-5,54,41,56,204304,16772504,10147,16758460,7413,10658,3942,1727,Tag0,unknown
1545074289241,0,112,2.4609375E-5,54,41,56,204304,16772504,10147,16758460,7413,10658,3942,1727,Tag0,unknown
1545074289241,0,115,2.52685546875E-5,54,41,56,204304,16772504,10147,16758460,7413,10658,3942,1727,Tag0,unknown
1545074289241,0,71,1.56005859375E-5,54,41,56,204304,16772504,10147,16758460,7413,10658,3942,1727,Tag0,unknown
1545074289257,0,37,8.1298828125E-6,54,41,56,204304,16772504,10147,16758460,7413,10658,3942,1727,Tag0,unknown
1545074289257,0,59,1.29638671875E-5,54,41,56,204304,16772504,10147,16758460,7413,10658,3942,1727,Tag0,unknown
1545074289258,0,107,2.35107421875E-5,54,41,56,204304,16772504,10147,16758460,7413,10658,3942,1727,Tag0,unknown
1545074289258,0,118,2.5927734375E-5,54,41,56,204304,16772504,10147,16758460,7413,10658,3942,1727,Tag0,unknown
1545074289259,0,74,1.6259765625E-5,54,41,56,204304,16772504,10147,16758460,7413,10658,3942,1727,Tag0,unknown
1545074289259,0,35,7.6904296875E-6,54,41,56,204304,16772504,10147,16758460,7413,10658,3942,1727,Tag0,unknown
1545074289259,0,44,9.66796875E-6,54,41,56,204304,16772504,10147,16758460,7413,10658,3942,1727,Tag0,unknown
1545074289259,0,87,1.91162109375E-5,54,41,56,204304,16772504,10147,16758460,7413,10658,3942,1727,Tag0,unknown
1545074289260,0,91,1.99951171875E-5,54,41,56,204304,16772504,10147,16758460,7413,10658,3942,1727,Tag0,unknown
1545074289273,0,53,1.1645507812500002E-5,54,41,56,204304,16772504,10147,16758460,7413,10658,3942,1727,Tag0,unknown
1545074289274,0,18,3.955078125E-6,54,41,56,204304,16772504,10147,16758460,7413,10658,3942,1727,Tag0,unknown
1545074289274,0,33,7.2509765625E-6,54,41,56,204304,16772504,10147,16758460,7413,10658,3942,1727,Tag0,unknown
1545074289274,0,84,1.8457031250000004E-5,54,41,56,204304,16772504,10147,16758460,7413,10658,3942,1727,Tag0,unknown
1545074289274,0,97,2.13134765625E-5,54,41,56,204304,16772504,10147,16758460,7413,10658,3942,1727,Tag0,unknown
1545074289275,0,57,1.2524414062500001E-5,54,41,56,204304,16772504,10147,16758460,7413,10658,3942,1727,Tag0,unknown
1545074289275,0,25,5.4931640625E-6,54,41,56,204304,16772504,10147,16758460,7413,10658,3942,1727,Tag0,unknown
1545074289275,0,28,6.15234375E-6,54,41,56,204304,16772504,10147,16758460,7413,10658,3942,1727,Tag0,unknown
1545074289276,0,57,1.2524414062500001E-5,54,41,56,204304,16772504,10147,16758460,7413,10658,3942,1727,Tag0,unknown
1545074289291,0,60,1.318359375E-5,54,41,56,204304,16772504,10147,16758460,7413,10658,3942,1727,Tag0,unknown
1545074289291,0,29,6.3720703125E-6,54,41,56,204304,16772504,10147,16758460,7413,10658,3942,1727,Tag0,unknown
1545074289292,0,5,1.0986328125E-6,54,41,56,204304,16772504,10147,16758460,7413,10658,3942,1727,Tag0,unknown
1545074289292,0,26,5.712890625E-6,54,41,56,204304,16772504,10147,16758460,7413,10658,3942,1727,Tag0,unknown
1545074289292,0,86,1.8896484375000003E-5,54,41,56,204304,16772504,10147,16758460,7413,10658,3942,1727,Tag0,unknown
1545074289293,0,106,2.3291015625000003E-5,54,41,56,204304,16772504,10147,16758460,7413,10658,3942,1727,Tag0,unknown
1545074289293,0,55,1.20849609375E-5,54,41,56,204304,16772504,10147,16758460,7413,10658,3942,1727,Tag0,unknown
1545074289293,0,1,2.197265625E-7,54,41,56,204304,16772504,10147,16758460,7413,10658,3942,1727,Tag0,unknown
1545074289305,0,2,4.39453125E-7,54,41,56,204304,16772504,10147,16758460,7413,10658,3942,1727,Tag0,unknown
1545074289306,0,54,1.1865234375000001E-5,54,41,56,204304,16772504,10147,16758460,7413,10658,3942,1727,Tag0,unknown
1545074289306,0,88,1.93359375E-5,54,41,56,204304,16772504,10147,16758460,7413,10658,3942,1727,Tag0,unknown
1545074289306,0,59,1.29638671875E-5,54,41,56,204304,16772504,10147,16758460,7413,10658,3942,1727,Tag0,unknown
1545074289307,0,11,2.4169921875E-6,54,41,56,204304,16772504,10147,16758460,7413,10658,3942,1727,Tag0,unknown
1545074289307,0,0,0.0,54,41,56,204304,16772504,10147,16758460,7413,10658,3942,1727,Tag0,unknown
1545074289308,0,41,9.008789062499999E-6,54,41,56,204304,16772504,10147,16758460,7413,10658,3942,1727,Tag0,unknown
1545074289308,0,73,1.6040039062500002E-5,54,41,56,204304,16772504,10147,16758460,7413,10658,3942,1727,Tag0,unknown
1545074289329,0,39,8.5693359375E-6,54,41,56,204304,16772504,10147,16758460,7413,10658,3942,1727,Tag0,unknown
1545074289330,0,-273,-5.998535156250001E-5,54,41,56,204304,16772504,10147,16758460,7413,10658,3942,1727,Tag0,unknown
1545074289331,0,-276,-6.064453125E-5,54,41,56,204304,16772504,10147,16758460,7413,10658,3942,1727,Tag0,unknown
1545074289338,0,37,8.1298828125E-6,54,41,56,204304,16772504,10147,16758460,7413,10658,3942,1727,Tag0,unknown
1545074289338,0,97,2.13134765625E-5,54,41,56,204304,16772504,10147,16758460,7413,10658,3942,1727,Tag0,unknown
1545074289338,0,93,2.04345703125E-5,54,41,56,204304,16772504,10147,16758460,7413,10658,3942,1727,Tag0,unknown
1545074289338,0,48,1.0546875E-5,54,41,56,204304,16772504,10147,16758460,7413,10658,3942,1727,Tag0,unknown
1545074289339,0,17,3.7353515625000003E-6,54,41,56,204304,16772504,10147,16758460,7413,10658,3942,1727,Tag0,unknown
1545074289339,0,45,9.8876953125E-6,54,41,56,204304,16772504,10147,16758460,7413,10658,3942,1727,Tag0,unknown
1545074289339,0,91,1.99951171875E-5,54,41,56,204304,16772504,10147,16758460,7413,10658,3942,1727,Tag0,unknown
1545074289340,0,86,1.8896484375000003E-5,54,41,56,204304,16772504,10147,16758460,7413,10658,3942,1727,Tag0,unknown
1545074289340,0,37,8.1298828125E-6,54,41,56,204304,16772504,10147,16758460,7413,10658,3942,1727,Tag0,unknown
1545074289342,0,7,1.5380859375E-6,54,41,56,204304,16772504,10147,16758460,7413,10658,3942,1727,Tag0,unknown
1545074289343,0,36,7.91015625E-6,54,41,56,204304,16772504,10147,16758460,7413,10658,3942,1727,Tag0,unknown
1545074289360,0,91,1.99951171875E-5,54,41,56,204304,16772504,10147,16758460,7413,10658,3942,1727,Tag0,unknown
1545074289361,0,103,2.26318359375E-5,54,41,56,204304,16772504,10147,16758460,7413,10658,3942,1727,Tag0,unknown
1545074289364,0,58,1.2744140625E-5,54,41,56,204304,16772504,10147,16758460,7413,10658,3942,1727,Tag0,unknown
1545074289385,0,19,4.1748046875E-6,54,41,56,204304,16772504,10147,16758460,7413,10658,3942,1727,Tag0,unknown
1545074289385,0,35,7.6904296875E-6,54,41,56,204304,16772504,10147,16758460,7413,10658,3942,1727,Tag0,unknown
1545074289385,0,85,1.86767578125E-5,54,41,56,204304,16772504,10147,16758460,7413,10658,3942,1727,Tag0,unknown
1545074289386,0,81,1.77978515625E-5,54,41,56,204304,16772504,10147,16758460,7413,10658,3942,1727,Tag0,unknown
1545074289386,0,8,1.7578125E-6,54,41,56,204304,16772504,10147,16758460,7413,10658,3942,1727,Tag0,unknown
1545074289386,0,-313,-6.87744140625E-5,54,41,56,204304,16772504,10147,16758460,7413,10658,3942,1727,Tag0,unknown
1545074289386,0,-317,-6.96533203125E-5,54,41,56,204304,16772504,10147,16758460,7413,10658,3942,1727,Tag0,unknown
1545074289387,0,-280,-6.15234375E-5,54,41,56,204304,16772504,10147,16758460,7413,10658,3942,1727,Tag0,unknown
1545074289387,0,-275,-6.04248046875E-5,54,41,56,204304,16772504,10147,16758460,7413,10658,3942,1727,Tag0,unknown
1545074289387,0,-329,-7.229003906250001E-5,54,41,56,204304,16772504,10147,16758460,7413,10658,3942,1727,Tag0,unknown
1545074289387,0,-138,-3.0322265625E-5,54,41,56,204304,16772504,10147,16758460,7413,10658,3942,1727,Tag0,unknown
1545074289387,0,-142,-3.1201171875E-5,54,41,56,204304,16772504,10147,16758460,7413,10658,3942,1727,Tag0,unknown
1545074289388,0,-334,-7.338867187500001E-5,54,41,56,204304,16772504,10147,16758460,7413,10658,3942,1727,Tag0,unknown
1545074289388,0,-285,-6.26220703125E-5,54,41,56,204304,16772504,10147,16758460,7413,10658,3942,1727,Tag0,unknown
1545074289388,0,-309,-6.78955078125E-5,54,41,56,204304,16772504,10147,16758460,7413,10658,3942,1727,Tag0,unknown
1545074289388,0,-356,-7.822265625E-5,54,41,56,204304,16772504,10147,16758460,7413,10658,3942,1727,Tag0,unknown
1545074289389,0,-363,-7.97607421875E-5,54,41,56,204304,16772504,10147,16758460,7413,10658,3942,1727,Tag0,unknown
1545074289394,0,-331,-7.272949218750001E-5,54,41,56,204304,16772504,10147,16758460,7413,10658,3942,1727,Tag0,unknown
1545074289394,0,-313,-6.87744140625E-5,54,41,56,204304,16772504,10147,16758460,7413,10658,3942,1727,Tag0,unknown
1545074289395,0,-338,-7.426757812499999E-5,54,41,56,204304,16772504,10147,16758460,7413,10658,3942,1727,Tag0,unknown
1545074289395,0,-381,-8.371582031250001E-5,54,41,56,204304,16772504,10147,16758460,7413,10658,3942,1727,Tag0,unknown
1545074289395,0,-130,-2.8564453125E-5,54,41,56,204304,16772504,10147,16758460,7413,10658,3942,1727,Tag0,unknown
1545074289396,0,-328,-7.207031249999999E-5,54,41,56,204304,16772504,10147,16758460,7413,10658,3942,1727,Tag0,unknown
1545074289396,0,-281,-6.17431640625E-5,54,41,56,204304,16772504,10147,16758460,7413,10658,3942,1727,Tag0,unknown
1545074289396,0,-299,-6.56982421875E-5,54,41,56,204304,16772504,10147,16758460,7413,10658,3942,1727,Tag0,unknown
1545074289396,0,-344,-7.558593750000001E-5,54,41,56,204304,16772504,10147,16758460,7413,10658,3942,1727,Tag0,unknown
1545074289397,0,-354,-7.778320312500001E-5,54,41,56,204304,16772504,10147,16758460,7413,10658,3942,1727,Tag0,unknown
1545074289397,0,-314,-6.8994140625E-5,54,41,56,204304,16772504,10147,16758460,7413,10658,3942,1727,Tag0,unknown
1545074289405,0,-279,-6.13037109375E-5,54,41,56,204304,16772504,10147,16758460,7413,10658,3942,1727,Tag0,unknown
1545074289406,0,-284,-6.240234375E-5,54,41,56,204304,16772504,10147,16758460,7413,10658,3942,1727,Tag0,unknown
1545074289406,0,-306,-6.723632812500001E-5,54,41,56,204304,16772504,10147,16758460,7413,10658,3942,1727,Tag0,unknown
1545074289406,0,-306,-6.723632812500001E-5,54,41,56,204304,16772504,10147,16758460,7413,10658,3942,1727,Tag0,unknown
1545074289406,0,-258,-5.6689453125000004E-5,54,41,56,204304,16772504,10147,16758460,7413,10658,3942,1727,Tag0,unknown
1545074289437,0,39,8.5693359375E-6,54,41,56,204304,16772504,10147,16758460,7413,10658,3942,1727,Tag0,unknown
1545074289437,0,19,4.1748046875E-6,54,41,56,204304,16772504,10147,16758460,7413,10658,3942,1727,Tag0,unknown
1545074289438,0,-281,-6.17431640625E-5,54,41,56,204304,16772504,10147,16758460,7413,10658,3942,1727,Tag0,unknown
1545074289438,0,-292,-6.416015625000001E-5,54,41,56,204304,16772504,10147,16758460,7413,10658,3942,1727,Tag0,unknown
1545074289438,0,0,0.0,54,41,56,204304,16772504,10147,16758460,7413,10658,3942,1727,Tag0,unknown
1545074289438,0,44,9.66796875E-6,54,41,56,204304,16772504,10147,16758460,7413,10658,3942,1727,Tag0,unknown
1545074289439,0,50,1.0986328125E-5,54,41,56,204304,16772504,10147,16758460,7413,10658,3942,1727,Tag0,unknown
1545074289439,0,13,2.8564453125E-6,54,41,56,204304,16772504,10147,16758460,7413,10658,3942,1727,Tag0,unknown
1545074289442,0,-260,-5.712890625E-5,54,41,56,204304,16772504,10147,16758460,7413,10658,3942,1727,Tag0,unknown
1545074289442,0,29,6.3720703125E-6,54,41,56,204304,16772504,10147,16758460,7413,10658,3942,1727,Tag0,unknown
1545074289442,0,82,1.8017578124999998E-5,54,41,56,204304,16772504,10147,16758460,7413,10658,3942,1727,Tag0,unknown
1545074289443,0,82,1.8017578124999998E-5,54,41,56,204304,16772504,10147,16758460,7413,10658,3942,1727,Tag0,unknown
1545074289443,0,21,4.614257812500001E-6,54,41,56,204304,16772504,10147,16758460,7413,10658,3942,1727,Tag0,unknown
1545074289443,0,-280,-6.15234375E-5,54,41,56,204304,16772504,10147,16758460,7413,10658,3942,1727,Tag0,unknown
1545074289443,0,1,2.197265625E-7,54,41,56,204304,16772504,10147,16758460,7413,10658,3942,1727,Tag0,unknown
1545074289443,0,64,1.40625E-5,54,41,56,204304,16772504,10147,16758460,7413,10658,3942,1727,Tag0,unknown
1545074289443,0,84,1.8457031250000004E-5,54,41,56,204304,16772504,10147,16758460,7413,10658,3942,1727,Tag0,unknown
1545074289457,0,55,1.20849609375E-5,54,41,56,204304,16772504,10147,16758460,7413,10658,3942,1727,Tag0,unknown
1545074289458,0,29,6.3720703125E-6,54,41,56,204304,16772504,10147,16758460,7413,10658,3942,1727,Tag0,unknown
1545074289458,0,40,8.7890625E-6,54,41,56,204304,16772504,10147,16758460,7413,10658,3942,1727,Tag0,unknown
1545074289458,0,76,1.669921875E-5,54,41,56,204304,16772504,10147,16758460,7413,10658,3942,1727,Tag0,unknown
1545074289458,0,87,1.91162109375E-5,54,41,56,204304,16772504,10147,16758460,7413,10658,3942,1727,Tag0,unknown
1545074289458,0,57,1.2524414062500001E-5,54,41,56,204304,16772504,10147,16758460,7413,10658,3942,1727,Tag0,unknown
1545074289459,0,39,8.5693359375E-6,54,41,56,204304,16772504,10147,16758460,7413,10658,3942,1727,Tag0,unknown
1545074289459,0,57,1.2524414062500001E-5,54,41,56,204304,16772504,10147,16758460,7413,10658,3942,1727,Tag0,unknown
1545074289473,0,97,2.13134765625E-5,54,41,56,204304,16772504,10147,16758460,7413,10658,3942,1727,Tag0,unknown
1545074289474,0,101,2.2192382812500002E-5,54,41,56,204304,16772504,10147,16758460,7413,10658,3942,1727,Tag0,unknown
1545074289474,0,57,1.2524414062500001E-5,54,41,56,204304,16772504,10147,16758460,7413,10658,3942,1727,Tag0,unknown
1545074289474,0,16,3.515625E-6,54,41,56,204304,16772504,10147,16758460,7413,10658,3942,1727,Tag0,unknown
1545074289474,0,18,3.955078125E-6,54,41,56,204304,16772504,10147,16758460,7413,10658,3942,1727,Tag0,unknown
1545074289474,0,48,1.0546875E-5,54,41,56,204304,16772504,10147,16758460,7413,10658,3942,1727,Tag0,unknown
1545074289475,0,64,1.40625E-5,54,41,56,204304,16772504,10147,16758460,7413,10658,3942,1727,Tag0,unknown
1545074289475,0,36,7.91015625E-6,54,41,56,204304,16772504,10147,16758460,7413,10658,3942,1727,Tag0,unknown
1545074289478,0,-265,-5.82275390625E-5,54,41,56,204304,16772504,10147,16758460,7413,10658,3942,1727,Tag0,unknown
1545074289478,0,-264,-5.80078125E-5,54,41,56,204304,16772504,10147,16758460,7413,10658,3942,1727,Tag0,unknown
1545074289478,0,34,7.4707031250000005E-6,54,41,56,204304,16772504,10147,16758460,7413,10658,3942,1727,Tag0,unknown
1545074289490,0,59,1.29638671875E-5,54,41,56,204304,16772504,10147,16758460,7413,10658,3942,1727,Tag0,unknown
1545074289490,0,39,8.5693359375E-6,54,41,56,204304,16772504,10147,16758460,7413,10658,3942,1727,Tag0,unknown
1545074289490,0,7,1.5380859375E-6,54,41,56,204304,16772504,10147,16758460,7413,10658,3942,1727,Tag0,unknown
1545074289491,0,9,1.9775390625E-6,54,41,56,204304,16772504,10147,16758460,7413,10658,3942,1727,Tag0,unknown
1545074289491,0,60,1.318359375E-5,54,41,56,204304,16772504,10147,16758460,7413,10658,3942,1727,Tag0,unknown
1545074289491,0,114,2.5048828125000003E-5,54,41,56,204304,16772504,10147,16758460,7413,10658,3942,1727,Tag0,unknown
1545074289491,0,101,2.2192382812500002E-5,54,41,56,204304,16772504,10147,16758460,7413,10658,3942,1727,Tag0,unknown
1545074289491,0,48,1.0546875E-5,54,41,56,204304,16772504,10147,16758460,7413,10658,3942,1727,Tag0,unknown
1545074289508,0,24,5.2734375E-6,54,41,56,204304,16772504,10147,16758460,7413,10658,3942,1727,Tag0,unknown
1545074289508,0,53,1.1645507812500002E-5,54,41,56,204304,16772504,10147,16758460,7413,10658,3942,1727,Tag0,unknown
1545074289508,0,105,2.30712890625E-5,54,41,56,204304,16772504,10147,16758460,7413,10658,3942,1727,Tag0,unknown
1545074289508,0,119,2.6147460937500004E-5,54,41,56,204304,16772504,10147,16758460,7413,10658,3942,1727,Tag0,unknown
1545074289509,0,90,1.9775390625E-5,54,41,56,204304,16772504,10147,16758460,7413,10658,3942,1727,Tag0,unknown
1545074289509,0,65,1.42822265625E-5,54,41,56,204304,16772504,10147,16758460,7413,10658,3942,1727,Tag0,unknown
1545074289525,0,96,2.109375E-5,54,41,56,204304,16772504,10147,16758460,7413,10658,3942,1727,Tag0,unknown
1545074289526,0,-108,-2.3730468750000002E-5,54,41,56,204304,16772504,10147,16758460,7413,10658,3942,1727,Tag0,unknown
1545074289527,0,-117,-2.5708007812499998E-5,54,41,56,204304,16772504,10147,16758460,7413,10658,3942,1727,Tag0,unknown
1545074289528,0,66,1.4501953125E-5,54,41,56,204304,16772504,10147,16758460,7413,10658,3942,1727,Tag0,unknown
1545074289529,0,7,1.5380859375E-6,54,41,56,204304,16772504,10147,16758460,7413,10658,3942,1727,Tag0,unknown
1545074289529,0,22,4.833984375E-6,54,41,56,204304,16772504,10147,16758460,7413,10658,3942,1727,Tag0,unknown
1545074289529,0,68,1.4941406250000001E-5,54,41,56,204304,16772504,10147,16758460,7413,10658,3942,1727,Tag0,unknown
1545074289530,0,69,1.51611328125E-5,54,41,56,204304,16772504,10147,16758460,7413,10658,3942,1727,Tag0,unknown
1545074289530,0,16,3.515625E-6,54,41,56,204304,16772504,10147,16758460,7413,10658,3942,1727,Tag0,unknown
1545074289530,0,-290,-6.3720703125E-5,54,41,56,204304,16772504,10147,16758460,7413,10658,3942,1727,Tag0,unknown
1545074289530,0,-282,-6.1962890625E-5,54,41,56,204304,16772504,10147,16758460,7413,10658,3942,1727,Tag0,unknown
1545074289531,0,9,1.9775390625E-6,54,41,56,204304,16772504,10147,16758460,7413,10658,3942,1727,Tag0,unknown
1545074289542,0,17,3.7353515625000003E-6,54,41,56,204304,16772504,10147,16758460,7413,10658,3942,1727,Tag0,unknown
1545074289543,0,-261,-5.73486328125E-5,54,41,56,204304,16772504,10147,16758460,7413,10658,3942,1727,Tag0,unknown
1545074289543,0,-278,-6.108398437500001E-5,54,41,56,204304,16772504,10147,16758460,7413,10658,3942,1727,Tag0,unknown
1545074289543,0,6,1.318359375E-6,54,41,56,204304,16772504,10147,16758460,7413,10658,3942,1727,Tag0,unknown
1545074289544,0,65,1.42822265625E-5,54,41,56,204304,16772504,10147,16758460,7413,10658,3942,1727,Tag0,unknown
1545074289544,0,96,2.109375E-5,54,41,56,204304,16772504,10147,16758460,7413,10658,3942,1727,Tag0,unknown
1545074289544,0,68,1.4941406250000001E-5,54,41,56,204304,16772504,10147,16758460,7413,10658,3942,1727,Tag0,unknown
1545074289545,0,25,5.4931640625E-6,54,41,56,204304,16772504,10147,16758460,7413,10658,3942,1727,Tag0,unknown
1545074289545,0,23,5.0537109375E-6,54,41,56,204304,16772504,10147,16758460,7413,10658,3942,1727,Tag0,unknown
1545074289556,0,70,1.5380859375E-5,54,41,56,204304,16772504,10147,16758460,7413,10658,3942,1727,Tag0,unknown
1545074289557,0,106,2.3291015625000003E-5,54,41,56,204304,16772504,10147,16758460,7413,10658,3942,1727,Tag0,unknown
1545074289557,0,85,1.86767578125E-5,54,41,56,204304,16772504,10147,16758460,7413,10658,3942,1727,Tag0,unknown
1545074289557,0,34,7.4707031250000005E-6,54,41,56,204304,16772504,10147,16758460,7413,10658,3942,1727,Tag0,unknown
1545074289557,0,25,5.4931640625E-6,54,41,56,204304,16772504,10147,16758460,7413,10658,3942,1727,Tag0,unknown
1545074289558,0,69,1.51611328125E-5,54,41,56,204304,16772504,10147,16758460,7413,10658,3942,1727,Tag0,unknown
1545074289575,0,97,2.13134765625E-5,54,41,56,204304,16772504,10147,16758460,7413,10658,3942,1727,Tag0,unknown
1545074289575,0,74,1.6259765625E-5,54,41,56,204304,16772504,10147,16758460,7413,10658,3942,1727,Tag0,unknown
1545074289576,0,22,4.833984375E-6,54,41,56,204304,16772504,10147,16758460,7413,10658,3942,1727,Tag0,unknown
1545074289576,0,-257,-5.64697265625E-5,54,41,56,204304,16772504,10147,16758460,7413,10658,3942,1727,Tag0,unknown
1545074289576,0,49,1.07666015625E-5,54,41,56,204304,16772504,10147,16758460,7413,10658,3942,1727,Tag0,unknown
1545074289577,0,116,2.548828125E-5,54,41,56,204304,16772504,10147,16758460,7413,10658,3942,1727,Tag0,unknown
1545074289577,0,115,2.52685546875E-5,54,41,56,204304,16772504,10147,16758460,7413,10658,3942,1727,Tag0,unknown
1545074289577,0,65,1.42822265625E-5,54,41,56,204304,16772504,10147,16758460,7413,10658,3942,1727,Tag0,unknown
1545074289577,0,37,8.1298828125E-6,54,41,56,204304,16772504,10147,16758460,7413,10658,3942,1727,Tag0,unknown
1545074289577,0,66,1.4501953125E-5,54,41,56,204304,16772504,10147,16758460,7413,10658,3942,1727,Tag0,unknown
1545074289578,0,105,2.30712890625E-5,54,41,56,204304,16772504,10147,16758460,7413,10658,3942,1727,Tag0,unknown
1545074289589,0,101,2.2192382812500002E-5,54,41,56,204304,16772504,10147,16758460,7413,10658,3942,1727,Tag0,unknown
1545074289590,0,52,1.142578125E-5,54,41,56,204304,16772504,10147,16758460,7413,10658,3942,1727,Tag0,unknown
1545074289590,0,10,2.197265625E-6,54,41,56,204304,16772504,10147,16758460,7413,10658,3942,1727,Tag0,unknown
1545074289590,0,39,8.5693359375E-6,54,41,56,204304,16772504,10147,16758460,7413,10658,3942,1727,Tag0,unknown
1545074289591,0,99,2.1752929687500003E-5,54,41,56,204304,16772504,10147,16758460,7413,10658,3942,1727,Tag0,unknown
1545074289591,0,101,2.2192382812500002E-5,54,41,56,204304,16772504,10147,16758460,7413,10658,3942,1727,Tag0,unknown
1545074289593,0,45,9.8876953125E-6,54,41,56,204304,16772504,10147,16758460,7413,10658,3942,1727,Tag0,unknown
1545074289605,0,9,1.9775390625E-6,54,41,56,204304,16772504,10147,16758460,7413,10658,3942,1727,Tag0,unknown
1545074289606,0,37,8.1298828125E-6,54,41,56,204304,16772504,10147,16758460,7413,10658,3942,1727,Tag0,unknown
1545074289606,0,101,2.2192382812500002E-5,54,41,56,204304,16772504,10147,16758460,7413,10658,3942,1727,Tag0,unknown
1545074289606,0,114,2.5048828125000003E-5,54,41,56,204304,16772504,10147,16758460,7413,10658,3942,1727,Tag0,unknown
1545074289606,0,69,1.51611328125E-5,54,41,56,204304,16772504,10147,16758460,7413,10658,3942,1727,Tag0,unknown
1545074289607,0,32,7.03125E-6,54,41,56,204304,16772504,10147,16758460,7413,10658,3942,1727,Tag0,unknown
1545074289607,0,51,1.1206054687499999E-5,54,41,56,204304,16772504,10147,16758460,7413,10658,3942,1727,Tag0,unknown
1545074289607,0,104,2.28515625E-5,54,41,56,204304,16772504,10147,16758460,7413,10658,3942,1727,Tag0,unknown
1545074289607,0,117,2.5708007812499998E-5,54,41,56,204304,16772504,10147,16758460,7413,10658,3942,1727,Tag0,unknown
1545074289622,0,68,1.4941406250000001E-5,54,41,56,204304,16772504,10147,16758460,7413,10658,3942,1727,Tag0,unknown
1545074289622,0,18,3.955078125E-6,54,41,56,204304,16772504,10147,16758460,7413,10658,3942,1727,Tag0,unknown
1545074289622,0,27,5.9326171875000005E-6,54,41,56,204304,16772504,10147,16758460,7413,10658,3942,1727,Tag0,unknown
1545074289623,0,83,1.82373046875E-5,54,41,56,204304,16772504,10147,16758460,7413,10658,3942,1727,Tag0,unknown
1545074289623,0,109,2.39501953125E-5,54,41,56,204304,16772504,10147,16758460,7413,10658,3942,1727,Tag0,unknown
1545074289623,0,75,1.64794921875E-5,54,41,56,204304,16772504,10147,16758460,7413,10658,3942,1727,Tag0,unknown
1545074289623,0,23,5.0537109375E-6,54,41,56,204304,16772504,10147,16758460,7413,10658,3942,1727,Tag0,unknown
1545074289623,0,18,3.955078125E-6,54,41,56,204304,16772504,10147,16758460,7413,10658,3942,1727,Tag0,unknown
1545074289639,0,59,1.29638671875E-5,54,41,56,204304,16772504,10147,16758460,7413,10658,3942,1727,Tag0,unknown
