timestampMs,poorSignal,eegRawValue,eegRawValueVolts,attention,meditation,blinkStrength,delta,theta,alphaLow,alphaHigh,betaLow,betaHigh,gammaLow,gammaMid,tagEvent,location
1545003851546,0,26,5.712890625E-6,43,54,42,331813,57873,16748868,25007,26712,19211,6643,2857,Tag0,unknown
1545003851552,0,40,8.7890625E-6,43,54,42,331813,57873,16748868,25007,26712,19211,6643,2857,Tag0,unknown
1545003851552,0,55,1.20849609375E-5,43,54,42,331813,57873,16748868,25007,26712,19211,6643,2857,Tag0,unknown
1545003851552,0,58,1.2744140625E-5,43,54,42,331813,57873,16748868,25007,26712,19211,6643,2857,Tag0,unknown
1545003851552,0,60,1.318359375E-5,43,54,42,331813,57873,16748868,25007,26712,19211,6643,2857,Tag0,unknown
1545003851553,0,60,1.318359375E-5,43,54,42,331813,57873,16748868,25007,26712,19211,6643,2857,Tag0,unknown
1545003851553,0,50,1.0986328125E-5,43,54,42,331813,57873,16748868,25007,26712,19211,6643,2857,Tag0,unknown
1545003851553,0,44,9.66796875E-6,43,54,42,331813,57873,16748868,25007,26712,19211,6643,2857,Tag0,unknown
1545003851553,0,57,1.2524414062500001E-5,43,54,42,331813,57873,16748868,25007,26712,19211,6643,2857,Tag0,unknown
1545003851553,0,72,1.58203125E-5,43,54,42,331813,57873,16748868,25007,26712,19211,6643,2857,Tag0,unknown
1545003851553,0,73,1.6040039062500002E-5,43,54,42,331813,57873,16748868,25007,26712,19211,6643,2857,Tag0,unknown
1545003851553,0,73,1.6040039062500002E-5,43,54,42,331813,57873,16748868,25007,26712,19211,6643,2857,Tag0,unknown
1545003851553,0,77,1.69189453125E-5,43,54,42,331813,57873,16748868,25007,26712,19211,6643,2857,Tag0,unknown
1545003851554,0,73,1.6040039062500002E-5,43,54,42,331813,57873,16748868,25007,26712,19211,6643,2857,Tag0,unknown
1545003851554,0,60,1.318359375E-5,43,54,42,331813,57873,16748868,25007,26712,19211,6643,2857,Tag0,unknown
1545003851554,0,49,1.07666015625E-5,43,54,42,331813,57873,16748868,25007,26712,19211,6643,2857,Tag0,unknown
1545003851554,0,52,1.142578125E-5,43,54,42,331813,57873,16748868,25007,26712,19211,6643,2857,Tag0,unknown
1545003851554,0,68,1.4941406250000001E-5,43,54,42,331813,57873,16748868,25007,26712,19211,6643,2857,Tag0,unknown
1545003851554,0,74,1.6259765625E-5,43,54,42,331813,57873,16748868,25007,26712,19211,6643,2857,Tag0,unknown
1545003851554,0,67,1.4721679687500002E-5,43,54,42,331813,57873,16748868,25007,26712,19211,6643,2857,Tag0,unknown
1545003851555,0,54,1.1865234375000001E-5,43,54,42,331813,57873,16748868,25007,26712,19211,6643,2857,Tag0,unknown
1545003851555,0,50,1.0986328125E-5,43,54,42,331813,57873,16748868,25007,26712,19211,6643,2857,Tag0,unknown
1545003851555,0,54,1.1865234375000001E-5,43,54,42,331813,57873,16748868,25007,26712,19211,6643,2857,Tag0,unknown
1545003851555,0,65,1.42822265625E-5,43,54,42,331813,57873,16748868,25007,26712,19211,6643,2857,Tag0,unknown
1545003851555,0,66,1.4501953125E-5,43,54,42,331813,57873,16748868,25007,26712,19211,6643,2857,Tag0,unknown
1545003851555,0,56,1.23046875E-5,43,54,42,331813,57873,16748868,25007,26712,19211,6643,2857,Tag0,unknown
1545003851555,0,52,1.142578125E-5,43,54,42,331813,57873,16748868,25007,26712,19211,6643,2857,Tag0,unknown
1545003851555,0,45,9.8876953125E-6,43,54,42,331813,57873,16748868,25007,26712,19211,6643,2857,Tag0,unknown
1545003851555,0,40,8.7890625E-6,43,54,42,331813,57873,16748868,25007,26712,19211,6643,2857,Tag0,unknown
1545003851556,0,39,8.5693359375E-6,43,54,42,331813,57873,16748868,25007,26712,19211,6643,2857,Tag0,unknown
1545003851556,0,33,7.2509765625E-6,43,54,42,331813,57873,16748868,25007,26712,19211,6643,2857,Tag0,unknown
1545003851556,0,21,4.614257812500001E-6,43,54,42,331813,57873,16748868,25007,26712,19211,6643,2857,Tag0,unknown
1545003851556,0,19,4.1748046875E-6,43,54,42,331813,57873,16748868,25007,26712,19211,6643,2857,Tag0,unknown
1545003851556,0,23,5.0537109375E-6,43,54,42,331813,57873,16748868,25007,26712,19211,6643,2857,Tag0,unknown
1545003851556,0,32,7.03125E-6,43,54,42,331813,57873,16748868,25007,26712,19211,6643,2857,Tag0,unknown
1545003851556,0,49,1.07666015625E-5,43,54,42,331813,57873,16748868,25007,26712,19211,6643,2857,Tag0,unknown
1545003851556,0,58,1.2744140625E-5,43,54,42,331813,57873,16748868,25007,26712,19211,6643,2857,Tag0,unknown
1545003851557,0,53,1.1645507812500002E-5,43,54,42,331813,57873,16748868,25007,26712,19211,6643,2857,Tag0,unknown
1545003851557,0,49,1.07666015625E-5,43,54,42,331813,57873,16748868,25007,26712,19211,6643,2857,Tag0,unknown
1545003851557,0,44,9.66796875E-6,43,54,42,331813,57873,16748868,25007,26712,19211,6643,2857,Tag0,unknown
1545003851557,0,48,1.0546875E-5,43,54,42,331813,57873,16748868,25007,26712,19211,6643,2857,Tag0,unknown
1545003851611,0,54,1.1865234375000001E-5,43,54,42,331813,57873,16748868,25007,26712,19211,6643,2857,Tag0,unknown
1545003851612,0,56,1.23046875E-5,43,54,42,331813,57873,16748868,25007,26712,19211,6643,2857,Tag0,unknown
1545003851612,0,53,1.1645507812500002E-5,43,54,42,331813,57873,16748868,25007,26712,19211,6643,2857,Tag0,unknown
1545003851619,0,48,1.0546875E-5,43,54,42,331813,57873,16748868,25007,26712,19211,6643,2857,Tag0,unknown
1545003851619,0,55,1.20849609375E-5,43,54,42,331813,57873,16748868,25007,26712,19211,6643,2857,Tag0,unknown
1545003851619,0,72,1.58203125E-5,43,54,42,331813,57873,16748868,25007,26712,19211,6643,2857,Tag0,unknown
1545003851619,0,73,1.6040039062500002E-5,43,54,42,331813,57873,16748868,25007,26712,19211,6643,2857,Tag0,unknown
1545003851620,0,67,1.4721679687500002E-5,43,54,42,331813,57873,16748868,25007,26712,19211,6643,2857,Tag0,unknown
1545003851620,0,64,1.40625E-5,43,54,42,331813,57873,16748868,25007,26712,19211,6643,2857,Tag0,unknown
1545003851620,0,68,1.4941406250000001E-5,43,54,42,331813,57873,16748868,25007,26712,19211,6643,2857,Tag0,unknown
1545003851620,0,74,1.6259765625E-5,43,54,42,331813,57873,16748868,25007,26712,19211,6643,2857,Tag0,unknown
1545003851620,0,73,1.6040039062500002E-5,43,54,42,331813,57873,16748868,25007,26712,19211,6643,2857,Tag0,unknown
1545003851620,0,64,1.40625E-5,43,54,42,331813,57873,16748868,25007,26712,19211,6643,2857,Tag0,unknown
1545003851621,0,53,1.1645507812500002E-5,43,54,42,331813,57873,16748868,25007,26712,19211,6643,2857,Tag0,unknown
1545003851621,0,51,1.1206054687499999E-5,43,54,42,331813,57873,16748868,25007,26712,19211,6643,2857,Tag0,unknown
1545003851621,0,51,1.1206054687499999E-5,43,54,42,331813,57873,16748868,25007,26712,19211,6643,2857,Tag0,unknown
1545003851621,0,44,9.66796875E-6,43,54,42,331813,57873,16748868,25007,26712,19211,6643,2857,Tag0,unknown
1545003851621,0,43,9.448242187500001E-6,43,54,42,331813,57873,16748868,25007,26712,19211,6643,2857,Tag0,unknown
1545003851621,0,49,1.07666015625E-5,43,54,42,331813,57873,16748868,25007,26712,19211,6643,2857,Tag0,unknown
1545003851621,0,51,1.1206054687499999E-5,43,54,42,331813,57873,16748868,25007,26712,19211,6643,2857,Tag0,unknown
1545003851723,0,48,1.0546875E-5,43,54,42,331813,57873,16748868,25007,26712,19211,6643,2857,Tag0,unknown
1545003851736,0,53,1.1645507812500002E-5,43,54,42,331813,57873,16748868,25007,26712,19211,6643,2857,Tag0,unknown
1545003851736,0,70,1.5380859375E-5,43,54,42,331813,57873,16748868,25007,26712,19211,6643,2857,Tag0,unknown
1545003851736,0,91,1.99951171875E-5,43,54,42,331813,57873,16748868,25007,26712,19211,6643,2857,Tag0,unknown
1545003851736,0,97,2.13134765625E-5,43,54,42,331813,57873,16748868,25007,26712,19211,6643,2857,Tag0,unknown
1545003851736,0,83,1.82373046875E-5,43,54,42,331813,57873,16748868,25007,26712,19211,6643,2857,Tag0,unknown
1545003851737,0,74,1.6259765625E-5,43,54,42,331813,57873,16748868,25007,26712,19211,6643,2857,Tag0,unknown
1545003851737,0,81,1.77978515625E-5,43,54,42,331813,57873,16748868,25007,26712,19211,6643,2857,Tag0,unknown
1545003851737,0,81,1.77978515625E-5,43,54,42,331813,57873,16748868,25007,26712,19211,6643,2857,Tag0,unknown
1545003851737,0,71,1.56005859375E-5,43,54,42,331813,57873,16748868,25007,26712,19211,6643,2857,Tag0,unknown
1545003851737,0,67,1.4721679687500002E-5,43,54,42,331813,57873,16748868,25007,26712,19211,6643,2857,Tag0,unknown
1545003851737,0,67,1.4721679687500002E-5,43,54,42,331813,57873,16748868,25007,26712,19211,6643,2857,Tag0,unknown
1545003851737,0,65,1.42822265625E-5,43,54,42,331813,57873,16748868,25007,26712,19211,6643,2857,Tag0,unknown
1545003851738,0,65,1.42822265625E-5,43,54,42,331813,57873,16748868,25007,26712,19211,6643,2857,Tag0,unknown
1545003851738,0,55,1.20849609375E-5,43,54,42,331813,57873,16748868,25007,26712,19211,6643,2857,Tag0,unknown
1545003851738,0,52,1.142578125E-5,43,54,42,331813,57873,16748868,25007,26712,19211,6643,2857,Tag0,unknown
1545003851738,0,61,1.34033203125E-5,43,54,42,331813,57873,16748868,25007,26712,19211,6643,2857,Tag0,unknown
1545003851738,0,70,1.5380859375E-5,43,54,42,331813,57873,16748868,25007,26712,19211,6643,2857,Tag0,unknown
1545003851739,0,71,1.56005859375E-5,43,54,42,331813,57873,16748868,25007,26712,19211,6643,2857,Tag0,unknown
1545003851739,0,66,1.4501953125E-5,43,54,42,331813,57873,16748868,25007,26712,19211,6643,2857,Tag0,unknown
1545003851739,0,52,1.142578125E-5,43,54,42,331813,57873,16748868,25007,26712,19211,6643,2857,Tag0,unknown
1545003851739,0,41,9.008789062499999E-6,43,54,42,331813,57873,16748868,25007,26712,19211,6643,2857,Tag0,unknown
1545003851739,0,44,9.66796875E-6,43,54,42,331813,57873,16748868,25007,26712,19211,6643,2857,Tag0,unknown
1545003851739,0,57,1.2524414062500001E-5,43,54,42,331813,57873,16748868,25007,26712,19211,6643,2857,Tag0,unknown
1545003851739,0,68,1.4941406250000001E-5,43,54,42,331813,57873,16748868,25007,26712,19211,6643,2857,Tag0,unknown
1545003851740,0,74,1.6259765625E-5,43,54,42,331813,57873,16748868,25007,26712,19211,6643,2857,Tag0,unknown
1545003851740,0,64,1.40625E-5,43,54,42,331813,57873,16748868,25007,26712,19211,6643,2857,Tag0,unknown
1545003851740,0,41,9.008789062499999E-6,43,54,42,331813,57873,16748868,25007,26712,19211,6643,2857,Tag0,unknown
1545003851740,0,36,7.91015625E-6,43,54,42,331813,57873,16748868,25007,26712,19211,6643,2857,Tag0,unknown
1545003851740,0,37,8.1298828125E-6,43,54,42,331813,57873,16748868,25007,26712,19211,6643,2857,Tag0,unknown
1545003851740,0,37,8.1298828125E-6,43,54,42,331813,57873,16748868,25007,26712,19211,6643,2857,Tag0,unknown
1545003851743,0,37,8.1298828125E-6,60,54,42,31641,30249,13681,3960,13986,19282,3065,1334,Tag0,unknown
1545003851743,0,44,9.66796875E-6,60,54,42,31641,30249,13681,3960,13986,19282,3065,1334,Tag0,unknown
1545003851743,0,53,1.1645507812500002E-5,60,54,42,31641,30249,13681,3960,13986,19282,3065,1334,Tag0,unknown
1545003851743,0,58,1.2744140625E-5,60,54,42,31641,30249,13681,3960,13986,19282,3065,1334,Tag0,unknown
1545003851743,0,60,1.318359375E-5,60,54,42,31641,30249,13681,3960,13986,19282,3065,1334,Tag0,unknown
1545003851785,0,57,1.2524414062500001E-5,60,54,42,31641,30249,13681,3960,13986,19282,3065,1334,Tag0,unknown
1545003851802,0,57,1.2524414062500001E-5,60,54,42,31641,30249,13681,3960,13986,19282,3065,1334,Tag0,unknown
1545003851802,0,65,1.42822265625E-5,60,54,42,31641,30249,13681,3960,13986,19282,3065,1334,Tag0,unknown
1545003851803,0,73,1.6040039062500002E-5,60,54,42,31641,30249,13681,3960,13986,19282,3065,1334,Tag0,unknown
1545003851803,0,74,1.6259765625E-5,60,54,42,31641,30249,13681,3960,13986,19282,3065,1334,Tag0,unknown
1545003851803,0,64,1.40625E-5,60,54,42,31641,30249,13681,3960,13986,19282,3065,1334,Tag0,unknown
1545003851803,0,52,1.142578125E-5,60,54,42,31641,30249,13681,3960,13986,19282,3065,1334,Tag0,unknown
1545003851803,0,51,1.1206054687499999E-5,60,54,42,31641,30249,13681,3960,13986,19282,3065,1334,Tag0,unknown
1545003851803,0,54,1.1865234375000001E-5,60,54,42,31641,30249,13681,3960,13986,19282,3065,1334,Tag0,unknown
1545003851803,0,61,1.34033203125E-5,60,54,42,31641,30249,13681,3960,13986,19282,3065,1334,Tag0,unknown
1545003851804,0,65,1.42822265625E-5,60,54,42,31641,30249,13681,3960,13986,19282,3065,1334,Tag0,unknown
1545003851804,0,57,1.2524414062500001E-5,60,54,42,31641,30249,13681,3960,13986,19282,3065,1334,Tag0,unknown
1545003851804,0,39,8.5693359375E-6,60,54,42,31641,30249,13681,3960,13986,19282,3065,1334,Tag0,unknown
1545003851804,0,35,7.6904296875E-6,60,54,42,31641,30249,13681,3960,13986,19282,3065,1334,Tag0,unknown
1545003851804,0,54,1.1865234375000001E-5,60,54,42,31641,30249,13681,3960,13986,19282,3065,1334,Tag0,unknown
1545003851805,0,71,1.56005859375E-5,60,54,42,31641,30249,13681,3960,13986,19282,3065,1334,Tag0,unknown
1545003851805,0,72,1.58203125E-5,60,54,42,31641,30249,13681,3960,13986,19282,3065,1334,Tag0,unknown
1545003851805,0,73,1.6040039062500002E-5,60,54,42,31641,30249,13681,3960,13986,19282,3065,1334,Tag0,unknown
1545003851805,0,81,1.77978515625E-5,60,54,42,31641,30249,13681,3960,13986,19282,3065,1334,Tag0,unknown
1545003851805,0,96,2.109375E-5,60,54,42,31641,30249,13681,3960,13986,19282,3065,1334,Tag0,unknown
1545003851805,0,116,2.548828125E-5,60,54,42,31641,30249,13681,3960,13986,19282,3065,1334,Tag0,unknown
1545003851805,0,-126,-2.7685546875E-5,60,54,42,31641,30249,13681,3960,13986,19282,3065,1334,Tag0,unknown
1545003851805,0,117,2.5708007812499998E-5,60,54,42,31641,30249,13681,3960,13986,19282,3065,1334,Tag0,unknown
1545003851806,0,98,2.1533203125E-5,60,54,42,31641,30249,13681,3960,13986,19282,3065,1334,Tag0,unknown
1545003851806,0,84,1.8457031250000004E-5,60,54,42,31641,30249,13681,3960,13986,19282,3065,1334,Tag0,unknown
1545003851806,0,61,1.34033203125E-5,60,54,42,31641,30249,13681,3960,13986,19282,3065,1334,Tag0,unknown
1545003851846,0,40,8.7890625E-6,60,54,42,31641,30249,13681,3960,13986,19282,3065,1334,Tag0,unknown
1545003851852,0,36,7.91015625E-6,60,54,42,31641,30249,13681,3960,13986,19282,3065,1334,Tag0,unknown
1545003851852,0,44,9.66796875E-6,60,54,42,31641,30249,13681,3960,13986,19282,3065,1334,Tag0,unknown
1545003851852,0,56,1.23046875E-5,60,54,42,31641,30249,13681,3960,13986,19282,3065,1334,Tag0,unknown
1545003851853,0,65,1.42822265625E-5,60,54,42,31641,30249,13681,3960,13986,19282,3065,1334,Tag0,unknown
1545003851853,0,65,1.42822265625E-5,60,54,42,31641,30249,13681,3960,13986,19282,3065,1334,Tag0,unknown
1545003851853,0,58,1.2744140625E-5,60,54,42,31641,30249,13681,3960,13986,19282,3065,1334,Tag0,unknown
1545003851853,0,60,1.318359375E-5,60,54,42,31641,30249,13681,3960,13986,19282,3065,1334,Tag0,unknown
1545003851853,0,69,1.51611328125E-5,60,54,42,31641,30249,13681,3960,13986,19282,3065,1334,Tag0,unknown
1545003851853,0,67,1.4721679687500002E-5,60,54,42,31641,30249,13681,3960,13986,19282,3065,1334,Tag0,unknown
1545003851854,0,57,1.2524414062500001E-5,60,54,42,31641,30249,13681,3960,13986,19282,3065,1334,Tag0,unknown
1545003851854,0,50,1.0986328125E-5,60,54,42,31641,30249,13681,3960,13986,19282,3065,1334,Tag0,unknown
1545003851854,0,41,9.008789062499999E-6,60,54,42,31641,30249,13681,3960,13986,19282,3065,1334,Tag0,unknown
1545003851854,0,39,8.5693359375E-6,60,54,42,31641,30249,13681,3960,13986,19282,3065,1334,Tag0,unknown
1545003851854,0,39,8.5693359375E-6,60,54,42,31641,30249,13681,3960,13986,19282,3065,1334,Tag0,unknown
1545003851854,0,34,7.4707031250000005E-6,60,54,42,31641,30249,13681,3960,13986,19282,3065,1334,Tag0,unknown
1545003851855,0,27,5.9326171875000005E-6,60,54,42,31641,30249,13681,3960,13986,19282,3065,1334,Tag0,unknown
1545003851855,0,32,7.03125E-6,60,54,42,31641,30249,13681,3960,13986,19282,3065,1334,Tag0,unknown
1545003851855,0,39,8.5693359375E-6,60,54,42,31641,30249,13681,3960,13986,19282,3065,1334,Tag0,unknown
1545003851855,0,43,9.448242187500001E-6,60,54,42,31641,30249,13681,3960,13986,19282,3065,1334,Tag0,unknown
1545003851855,0,45,9.8876953125E-6,60,54,42,31641,30249,13681,3960,13986,19282,3065,1334,Tag0,unknown
1545003851855,0,44,9.66796875E-6,60,54,42,31641,30249,13681,3960,13986,19282,3065,1334,Tag0,unknown
1545003851855,0,49,1.07666015625E-5,60,54,42,31641,30249,13681,3960,13986,19282,3065,1334,Tag0,unknown
1545003851856,0,55,1.20849609375E-5,60,54,42,31641,30249,13681,3960,13986,19282,3065,1334,Tag0,unknown
1545003851856,0,60,1.318359375E-5,60,54,42,31641,30249,13681,3960,13986,19282,3065,1334,Tag0,unknown
1545003851856,0,57,1.2524414062500001E-5,60,54,42,31641,30249,13681,3960,13986,19282,3065,1334,Tag0,unknown
1545003851856,0,44,9.66796875E-6,60,54,42,31641,30249,13681,3960,13986,19282,3065,1334,Tag0,unknown
1545003851856,0,27,5.9326171875000005E-6,60,54,42,31641,30249,13681,3960,13986,19282,3065,1334,Tag0,unknown
1545003851856,0,22,4.833984375E-6,60,54,42,31641,30249,13681,3960,13986,19282,3065,1334,Tag0,unknown
1545003851856,0,22,4.833984375E-6,60,54,42,31641,30249,13681,3960,13986,19282,3065,1334,Tag0,unknown
1545003851857,0,19,4.1748046875E-6,60,54,42,31641,30249,13681,3960,13986,19282,3065,1334,Tag0,unknown
1545003851857,0,16,3.515625E-6,60,54,42,31641,30249,13681,3960,13986,19282,3065,1334,Tag0,unknown
1545003851857,0,23,5.0537109375E-6,60,54,42,31641,30249,13681,3960,13986,19282,3065,1334,Tag0,unknown
1545003851857,0,32,7.03125E-6,60,54,42,31641,30249,13681,3960,13986,19282,3065,1334,Tag0,unknown
1545003851858,0,21,4.614257812500001E-6,60,54,42,31641,30249,13681,3960,13986,19282,3065,1334,Tag0,unknown
1545003851858,0,19,4.1748046875E-6,60,54,42,31641,30249,13681,3960,13986,19282,3065,1334,Tag0,unknown
1545003851858,0,19,4.1748046875E-6,60,54,42,31641,30249,13681,3960,13986,19282,3065,1334,Tag0,unknown
1545003851858,0,22,4.833984375E-6,60,54,42,31641,30249,13681,3960,13986,19282,3065,1334,Tag0,unknown
1545003851858,0,36,7.91015625E-6,60,54,42,31641,30249,13681,3960,13986,19282,3065,1334,Tag0,unknown
1545003851858,0,59,1.29638671875E-5,60,54,42,31641,30249,13681,3960,13986,19282,3065,1334,Tag0,unknown
1545003851859,0,69,1.51611328125E-5,60,54,42,31641,30249,13681,3960,13986,19282,3065,1334,Tag0,unknown
1545003851905,0,61,1.34033203125E-5,60,54,42,31641,30249,13681,3960,13986,19282,3065,1334,Tag0,unknown
1545003851919,0,56,1.23046875E-5,60,54,42,31641,30249,13681,3960,13986,19282,3065,1334,Tag0,unknown
1545003851919,0,48,1.0546875E-5,60,54,42,31641,30249,13681,3960,13986,19282,3065,1334,Tag0,unknown
1545003851919,0,37,8.1298828125E-6,60,54,42,31641,30249,13681,3960,13986,19282,3065,1334,Tag0,unknown
1545003851919,0,34,7.4707031250000005E-6,60,54,42,31641,30249,13681,3960,13986,19282,3065,1334,Tag0,unknown
1545003851919,0,32,7.03125E-6,60,54,42,31641,30249,13681,3960,13986,19282,3065,1334,Tag0,unknown
1545003851919,0,37,8.1298828125E-6,60,54,42,31641,30249,13681,3960,13986,19282,3065,1334,Tag0,unknown
1545003851920,0,40,8.7890625E-6,60,54,42,31641,30249,13681,3960,13986,19282,3065,1334,Tag0,unknown
1545003851920,0,40,8.7890625E-6,60,54,42,31641,30249,13681,3960,13986,19282,3065,1334,Tag0,unknown
1545003851920,0,44,9.66796875E-6,60,54,42,31641,30249,13681,3960,13986,19282,3065,1334,Tag0,unknown
1545003851922,0,54,1.1865234375000001E-5,60,54,42,31641,30249,13681,3960,13986,19282,3065,1334,Tag0,unknown
1545003851922,0,49,1.07666015625E-5,60,54,42,31641,30249,13681,3960,13986,19282,3065,1334,Tag0,unknown
1545003851922,0,37,8.1298828125E-6,60,54,42,31641,30249,13681,3960,13986,19282,3065,1334,Tag0,unknown
1545003851923,0,41,9.008789062499999E-6,60,54,42,31641,30249,13681,3960,13986,19282,3065,1334,Tag0,unknown
1545003851923,0,43,9.448242187500001E-6,60,54,42,31641,30249,13681,3960,13986,19282,3065,1334,Tag0,unknown
1545003851923,0,39,8.5693359375E-6,60,54,42,31641,30249,13681,3960,13986,19282,3065,1334,Tag0,unknown
1545003851923,0,32,7.03125E-6,60,54,42,31641,30249,13681,3960,13986,19282,3065,1334,Tag0,unknown
1545003851923,0,26,5.712890625E-6,60,54,42,31641,30249,13681,3960,13986,19282,3065,1334,Tag0,unknown
1545003851923,0,40,8.7890625E-6,60,54,42,31641,30249,13681,3960,13986,19282,3065,1334,Tag0,unknown
1545003851923,0,56,1.23046875E-5,60,54,42,31641,30249,13681,3960,13986,19282,3065,1334,Tag0,unknown
1545003851924,0,60,1.318359375E-5,60,54,42,31641,30249,13681,3960,13986,19282,3065,1334,Tag0,unknown
1545003851924,0,68,1.4941406250000001E-5,60,54,42,31641,30249,13681,3960,13986,19282,3065,1334,Tag0,unknown
1545003851924,0,72,1.58203125E-5,60,54,42,31641,30249,13681,3960,13986,19282,3065,1334,Tag0,unknown
1545003851924,0,70,1.5380859375E-5,60,54,42,31641,30249,13681,3960,13986,19282,3065,1334,Tag0,unknown
1545003851966,0,77,1.69189453125E-5,60,54,42,31641,30249,13681,3960,13986,19282,3065,1334,Tag0,unknown
1545003851988,0,81,1.77978515625E-5,60,54,42,31641,30249,13681,3960,13986,19282,3065,1334,Tag0,unknown
1545003851989,0,67,1.4721679687500002E-5,60,54,42,31641,30249,13681,3960,13986,19282,3065,1334,Tag0,unknown
1545003851990,0,51,1.1206054687499999E-5,60,54,42,31641,30249,13681,3960,13986,19282,3065,1334,Tag0,unknown
1545003851990,0,38,8.349609375E-6,60,54,42,31641,30249,13681,3960,13986,19282,3065,1334,Tag0,unknown
1545003851991,0,36,7.91015625E-6,60,54,42,31641,30249,13681,3960,13986,19282,3065,1334,Tag0,unknown
1545003851991,0,39,8.5693359375E-6,60,54,42,31641,30249,13681,3960,13986,19282,3065,1334,Tag0,unknown
1545003851991,0,48,1.0546875E-5,60,54,42,31641,30249,13681,3960,13986,19282,3065,1334,Tag0,unknown
1545003851991,0,61,1.34033203125E-5,60,54,42,31641,30249,13681,3960,13986,19282,3065,1334,Tag0,unknown
1545003851991,0,72,1.58203125E-5,60,54,42,31641,30249,13681,3960,13986,19282,3065,1334,Tag0,unknown
1545003851992,0,67,1.4721679687500002E-5,60,54,42,31641,30249,13681,3960,13986,19282,3065,1334,Tag0,unknown
1545003851992,0,55,1.20849609375E-5,60,54,42,31641,30249,13681,3960,13986,19282,3065,1334,Tag0,unknown
1545003851992,0,49,1.07666015625E-5,60,54,42,31641,30249,13681,3960,13986,19282,3065,1334,Tag0,unknown
1545003851992,0,49,1.07666015625E-5,60,54,42,31641,30249,13681,3960,13986,19282,3065,1334,Tag0,unknown
1545003851992,0,64,1.40625E-5,60,54,42,31641,30249,13681,3960,13986,19282,3065,1334,Tag0,unknown
1545003851993,0,81,1.77978515625E-5,60,54,42,31641,30249,13681,3960,13986,19282,3065,1334,Tag0,unknown
1545003851994,0,75,1.64794921875E-5,60,54,42,31641,30249,13681,3960,13986,19282,3065,1334,Tag0,unknown
1545003851994,0,55,1.20849609375E-5,60,54,42,31641,30249,13681,3960,13986,19282,3065,1334,Tag0,unknown
1545003851995,0,36,7.91015625E-6,60,54,42,31641,30249,13681,3960,13986,19282,3065,1334,Tag0,unknown
1545003851995,0,28,6.15234375E-6,60,54,42,31641,30249,13681,3960,13986,19282,3065,1334,Tag0,unknown
1545003851995,0,32,7.03125E-6,60,54,42,31641,30249,13681,3960,13986,19282,3065,1334,Tag0,unknown
1545003851995,0,32,7.03125E-6,60,54,42,31641,30249,13681,3960,13986,19282,3065,1334,Tag0,unknown
1545003851995,0,36,7.91015625E-6,60,54,42,31641,30249,13681,3960,13986,19282,3065,1334,Tag0,unknown
1545003851995,0,40,8.7890625E-6,60,54,42,31641,30249,13681,3960,13986,19282,3065,1334,Tag0,unknown
1545003851995,0,48,1.0546875E-5,60,54,42,31641,30249,13681,3960,13986,19282,3065,1334,Tag0,unknown
1545003851996,0,44,9.66796875E-6,60,54,42,31641,30249,13681,3960,13986,19282,3065,1334,Tag0,unknown
1545003851996,0,52,1.142578125E-5,60,54,42,31641,30249,13681,3960,13986,19282,3065,1334,Tag0,unknown
1545003851996,0,60,1.318359375E-5,60,54,42,31641,30249,13681,3960,13986,19282,3065,1334,Tag0,unknown
1545003851996,0,57,1.2524414062500001E-5,60,54,42,31641,30249,13681,3960,13986,19282,3065,1334,Tag0,unknown
1545003851996,0,43,9.448242187500001E-6,60,54,42,31641,30249,13681,3960,13986,19282,3065,1334,Tag0,unknown
1545003851996,0,34,7.4707031250000005E-6,60,54,42,31641,30249,13681,3960,13986,19282,3065,1334,Tag0,unknown
1545003851996,0,24,5.2734375E-6,60,54,42,31641,30249,13681,3960,13986,19282,3065,1334,Tag0,unknown
1545003851997,0,19,4.1748046875E-6,60,54,42,31641,30249,13681,3960,13986,19282,3065,1334,Tag0,unknown
1545003851997,0,35,7.6904296875E-6,60,54,42,31641,30249,13681,3960,13986,19282,3065,1334,Tag0,unknown
1545003851997,0,43,9.448242187500001E-6,60,54,42,31641,30249,13681,3960,13986,19282,3065,1334,Tag0,unknown
1545003851997,0,41,9.008789062499999E-6,60,54,42,31641,30249,13681,3960,13986,19282,3065,1334,Tag0,unknown
1545003851997,0,34,7.4707031250000005E-6,60,54,42,31641,30249,13681,3960,13986,19282,3065,1334,Tag0,unknown
1545003851997,0,33,7.2509765625E-6,60,54,42,31641,30249,13681,3960,13986,19282,3065,1334,Tag0,unknown
1545003851997,0,38,8.349609375E-6,60,54,42,31641,30249,13681,3960,13986,19282,3065,1334,Tag0,unknown
1545003851998,0,36,7.91015625E-6,60,54,42,31641,30249,13681,3960,13986,19282,3065,1334,Tag0,unknown
1545003851998,0,33,7.2509765625E-6,60,54,42,31641,30249,13681,3960,13986,19282,3065,1334,Tag0,unknown
1545003852030,0,26,5.712890625E-6,60,54,42,31641,30249,13681,3960,13986,19282,3065,1334,Tag0,unknown
1545003852031,0,22,4.833984375E-6,60,54,42,31641,30249,13681,3960,13986,19282,3065,1334,Tag0,unknown
1545003852037,0,21,4.614257812500001E-6,60,54,42,31641,30249,13681,3960,13986,19282,3065,1334,Tag0,unknown
1545003852038,0,21,4.614257812500001E-6,60,54,42,31641,30249,13681,3960,13986,19282,3065,1334,Tag0,unknown
1545003852038,0,23,5.0537109375E-6,60,54,42,31641,30249,13681,3960,13986,19282,3065,1334,Tag0,unknown
1545003852039,0,27,5.9326171875000005E-6,60,54,42,31641,30249,13681,3960,13986,19282,3065,1334,Tag0,unknown
1545003852039,0,24,5.2734375E-6,60,54,42,31641,30249,13681,3960,13986,19282,3065,1334,Tag0,unknown
1545003852039,0,8,1.7578125E-6,60,54,42,31641,30249,13681,3960,13986,19282,3065,1334,Tag0,unknown
1545003852039,0,-261,-5.73486328125E-5,60,54,42,31641,30249,13681,3960,13986,19282,3065,1334,Tag0,unknown
1545003852039,0,-263,-5.7788085937500005E-5,60,54,42,31641,30249,13681,3960,13986,19282,3065,1334,Tag0,unknown
1545003852040,0,-265,-5.82275390625E-5,60,54,42,31641,30249,13681,3960,13986,19282,3065,1334,Tag0,unknown
1545003852040,0,-261,-5.73486328125E-5,60,54,42,31641,30249,13681,3960,13986,19282,3065,1334,Tag0,unknown
1545003852040,0,5,1.0986328125E-6,60,54,42,31641,30249,13681,3960,13986,19282,3065,1334,Tag0,unknown
1545003852040,0,20,4.39453125E-6,60,54,42,31641,30249,13681,3960,13986,19282,3065,1334,Tag0,unknown
1545003852040,0,26,5.712890625E-6,60,54,42,31641,30249,13681,3960,13986,19282,3065,1334,Tag0,unknown
1545003852040,0,33,7.2509765625E-6,60,54,42,31641,30249,13681,3960,13986,19282,3065,1334,Tag0,unknown
1545003852041,0,52,1.142578125E-5,60,54,42,31641,30249,13681,3960,13986,19282,3065,1334,Tag0,unknown
1545003852041,0,74,1.6259765625E-5,60,54,42,31641,30249,13681,3960,13986,19282,3065,1334,Tag0,unknown
1545003852041,0,88,1.93359375E-5,60,54,42,31641,30249,13681,3960,13986,19282,3065,1334,Tag0,unknown
1545003852041,0,87,1.91162109375E-5,60,54,42,31641,30249,13681,3960,13986,19282,3065,1334,Tag0,unknown
1545003852041,0,81,1.77978515625E-5,60,54,42,31641,30249,13681,3960,13986,19282,3065,1334,Tag0,unknown
1545003852042,0,76,1.669921875E-5,60,54,42,31641,30249,13681,3960,13986,19282,3065,1334,Tag0,unknown
1545003852042,0,84,1.8457031250000004E-5,60,54,42,31641,30249,13681,3960,13986,19282,3065,1334,Tag0,unknown
1545003852042,0,97,2.13134765625E-5,60,54,42,31641,30249,13681,3960,13986,19282,3065,1334,Tag0,unknown
1545003852042,0,92,2.021484375E-5,60,54,42,31641,30249,13681,3960,13986,19282,3065,1334,Tag0,unknown
1545003852042,0,83,1.82373046875E-5,60,54,42,31641,30249,13681,3960,13986,19282,3065,1334,Tag0,unknown
1545003852043,0,67,1.4721679687500002E-5,60,54,42,31641,30249,13681,3960,13986,19282,3065,1334,Tag0,unknown
1545003852043,0,52,1.142578125E-5,60,54,42,31641,30249,13681,3960,13986,19282,3065,1334,Tag0,unknown
1545003852043,0,48,1.0546875E-5,60,54,42,31641,30249,13681,3960,13986,19282,3065,1334,Tag0,unknown
1545003852043,0,53,1.1645507812500002E-5,60,54,42,31641,30249,13681,3960,13986,19282,3065,1334,Tag0,unknown
1545003852043,0,65,1.42822265625E-5,60,54,42,31641,30249,13681,3960,13986,19282,3065,1334,Tag0,unknown
1545003852044,0,65,1.42822265625E-5,60,54,42,31641,30249,13681,3960,13986,19282,3065,1334,Tag0,unknown
1545003852044,0,52,1.142578125E-5,60,54,42,31641,30249,13681,3960,13986,19282,3065,1334,Tag0,unknown
1545003852044,0,44,9.66796875E-6,60,54,42,31641,30249,13681,3960,13986,19282,3065,1334,Tag0,unknown
1545003852044,0,53,1.1645507812500002E-5,60,54,42,31641,30249,13681,3960,13986,19282,3065,1334,Tag0,unknown
1545003852045,0,69,1.51611328125E-5,60,54,42,31641,30249,13681,3960,13986,19282,3065,1334,Tag0,unknown
1545003852045,0,75,1.64794921875E-5,60,54,42,31641,30249,13681,3960,13986,19282,3065,1334,Tag0,unknown
1545003852045,0,73,1.6040039062500002E-5,60,54,42,31641,30249,13681,3960,13986,19282,3065,1334,Tag0,unknown
1545003852045,0,64,1.40625E-5,60,54,42,31641,30249,13681,3960,13986,19282,3065,1334,Tag0,unknown
1545003852045,0,52,1.142578125E-5,60,54,42,31641,30249,13681,3960,13986,19282,3065,1334,Tag0,unknown
1545003852046,0,36,7.91015625E-6,60,54,42,31641,30249,13681,3960,13986,19282,3065,1334,Tag0,unknown
1545003852120,0,27,5.9326171875000005E-6,60,54,42,31641,30249,13681,3960,13986,19282,3065,1334,Tag0,unknown
1545003852120,0,39,8.5693359375E-6,60,54,42,31641,30249,13681,3960,13986,19282,3065,1334,Tag0,unknown
1545003852120,0,50,1.0986328125E-5,60,54,42,31641,30249,13681,3960,13986,19282,3065,1334,Tag0,unknown
1545003852121,0,45,9.8876953125E-6,60,54,42,31641,30249,13681,3960,13986,19282,3065,1334,Tag0,unknown
1545003852121,0,35,7.6904296875E-6,60,54,42,31641,30249,13681,3960,13986,19282,3065,1334,Tag0,unknown
1545003852121,0,22,4.833984375E-6,60,54,42,31641,30249,13681,3960,13986,19282,3065,1334,Tag0,unknown
1545003852121,0,21,4.614257812500001E-6,60,54,42,31641,30249,13681,3960,13986,19282,3065,1334,Tag0,unknown
1545003852121,0,21,4.614257812500001E-6,60,54,42,31641,30249,13681,3960,13986,19282,3065,1334,Tag0,unknown
1545003852122,0,16,3.515625E-6,60,54,42,31641,30249,13681,3960,13986,19282,3065,1334,Tag0,unknown
1545003852122,0,19,4.1748046875E-6,60,54,42,31641,30249,13681,3960,13986,19282,3065,1334,Tag0,unknown
1545003852122,0,24,5.2734375E-6,60,54,42,31641,30249,13681,3960,13986,19282,3065,1334,Tag0,unknown
1545003852123,0,32,7.03125E-6,60,54,42,31641,30249,13681,3960,13986,19282,3065,1334,Tag0,unknown
1545003852123,0,43,9.448242187500001E-6,60,54,42,31641,30249,13681,3960,13986,19282,3065,1334,Tag0,unknown
1545003852123,0,58,1.2744140625E-5,60,54,42,31641,30249,13681,3960,13986,19282,3065,1334,Tag0,unknown
1545003852123,0,67,1.4721679687500002E-5,60,54,42,31641,30249,13681,3960,13986,19282,3065,1334,Tag0,unknown
1545003852124,0,73,1.6040039062500002E-5,60,54,42,31641,30249,13681,3960,13986,19282,3065,1334,Tag0,unknown
1545003852124,0,71,1.56005859375E-5,60,54,42,31641,30249,13681,3960,13986,19282,3065,1334,Tag0,unknown
1545003852124,0,71,1.56005859375E-5,60,54,42,31641,30249,13681,3960,13986,19282,3065,1334,Tag0,unknown
1545003852124,0,70,1.5380859375E-5,60,54,42,31641,30249,13681,3960,13986,19282,3065,1334,Tag0,unknown
1545003852124,0,65,1.42822265625E-5,60,54,42,31641,30249,13681,3960,13986,19282,3065,1334,Tag0,unknown
1545003852124,0,59,1.29638671875E-5,60,54,42,31641,30249,13681,3960,13986,19282,3065,1334,Tag0,unknown
1545003852125,0,56,1.23046875E-5,60,54,42,31641,30249,13681,3960,13986,19282,3065,1334,Tag0,unknown
1545003852125,0,53,1.1645507812500002E-5,60,54,42,31641,30249,13681,3960,13986,19282,3065,1334,Tag0,unknown
1545003852125,0,52,1.142578125E-5,60,54,42,31641,30249,13681,3960,13986,19282,3065,1334,Tag0,unknown
1545003852125,0,52,1.142578125E-5,60,54,42,31641,30249,13681,3960,13986,19282,3065,1334,Tag0,unknown
1545003852125,0,54,1.1865234375000001E-5,60,54,42,31641,30249,13681,3960,13986,19282,3065,1334,Tag0,unknown
1545003852126,0,66,1.4501953125E-5,60,54,42,31641,30249,13681,3960,13986,19282,3065,1334,Tag0,unknown
1545003852126,0,77,1.69189453125E-5,60,54,42,31641,30249,13681,3960,13986,19282,3065,1334,Tag0,unknown
1545003852126,0,75,1.64794921875E-5,60,54,42,31641,30249,13681,3960,13986,19282,3065,1334,Tag0,unknown
1545003852126,0,58,1.2744140625E-5,60,54,42,31641,30249,13681,3960,13986,19282,3065,1334,Tag0,unknown
1545003852126,0,43,9.448242187500001E-6,60,54,42,31641,30249,13681,3960,13986,19282,3065,1334,Tag0,unknown
1545003852127,0,40,8.7890625E-6,60,54,42,31641,30249,13681,3960,13986,19282,3065,1334,Tag0,unknown
1545003852127,0,39,8.5693359375E-6,60,54,42,31641,30249,13681,3960,13986,19282,3065,1334,Tag0,unknown
1545003852127,0,41,9.008789062499999E-6,60,54,42,31641,30249,13681,3960,13986,19282,3065,1334,Tag0,unknown
1545003852127,0,38,8.349609375E-6,60,54,42,31641,30249,13681,3960,13986,19282,3065,1334,Tag0,unknown
1545003852127,0,38,8.349609375E-6,60,54,42,31641,30249,13681,3960,13986,19282,3065,1334,Tag0,unknown
1545003852128,0,41,9.008789062499999E-6,60,54,42,31641,30249,13681,3960,13986,19282,3065,1334,Tag0,unknown
1545003852128,0,49,1.07666015625E-5,60,54,42,31641,30249,13681,3960,13986,19282,3065,1334,Tag0,unknown
1545003852128,0,53,1.1645507812500002E-5,60,54,42,31641,30249,13681,3960,13986,19282,3065,1334,Tag0,unknown
1545003852128,0,59,1.29638671875E-5,60,54,42,31641,30249,13681,3960,13986,19282,3065,1334,Tag0,unknown
1545003852128,0,71,1.56005859375E-5,60,54,42,31641,30249,13681,3960,13986,19282,3065,1334,Tag0,unknown
1545003852145,0,64,1.40625E-5,60,54,42,31641,30249,13681,3960,13986,19282,3065,1334,Tag0,unknown
1545003852154,0,40,8.7890625E-6,60,54,42,31641,30249,13681,3960,13986,19282,3065,1334,Tag0,unknown
1545003852155,0,48,1.0546875E-5,60,54,42,31641,30249,13681,3960,13986,19282,3065,1334,Tag0,unknown
1545003852155,0,40,8.7890625E-6,60,54,42,31641,30249,13681,3960,13986,19282,3065,1334,Tag0,unknown
1545003852155,0,2,4.39453125E-7,60,54,42,31641,30249,13681,3960,13986,19282,3065,1334,Tag0,unknown
1545003852156,0,-269,-5.9106445312499996E-5,60,54,42,31641,30249,13681,3960,13986,19282,3065,1334,Tag0,unknown
1545003852156,0,24,5.2734375E-6,60,54,42,31641,30249,13681,3960,13986,19282,3065,1334,Tag0,unknown
1545003852156,0,91,1.99951171875E-5,60,54,42,31641,30249,13681,3960,13986,19282,3065,1334,Tag0,unknown
1545003852156,0,120,2.63671875E-5,60,54,42,31641,30249,13681,3960,13986,19282,3065,1334,Tag0,unknown
1545003852157,0,104,2.28515625E-5,60,54,42,31641,30249,13681,3960,13986,19282,3065,1334,Tag0,unknown
1545003852157,0,85,1.86767578125E-5,60,54,42,31641,30249,13681,3960,13986,19282,3065,1334,Tag0,unknown
1545003852157,0,96,2.109375E-5,60,54,42,31641,30249,13681,3960,13986,19282,3065,1334,Tag0,unknown
1545003852157,0,119,2.6147460937500004E-5,60,54,42,31641,30249,13681,3960,13986,19282,3065,1334,Tag0,unknown
1545003852158,0,-126,-2.7685546875E-5,60,54,42,31641,30249,13681,3960,13986,19282,3065,1334,Tag0,unknown
1545003852158,0,113,2.48291015625E-5,60,54,42,31641,30249,13681,3960,13986,19282,3065,1334,Tag0,unknown
1545003852158,0,89,1.95556640625E-5,60,54,42,31641,30249,13681,3960,13986,19282,3065,1334,Tag0,unknown
1545003852158,0,69,1.51611328125E-5,60,54,42,31641,30249,13681,3960,13986,19282,3065,1334,Tag0,unknown
1545003852159,0,51,1.1206054687499999E-5,60,54,42,31641,30249,13681,3960,13986,19282,3065,1334,Tag0,unknown
1545003852159,0,33,7.2509765625E-6,60,54,42,31641,30249,13681,3960,13986,19282,3065,1334,Tag0,unknown
1545003852159,0,18,3.955078125E-6,60,54,42,31641,30249,13681,3960,13986,19282,3065,1334,Tag0,unknown
1545003852159,0,23,5.0537109375E-6,60,54,42,31641,30249,13681,3960,13986,19282,3065,1334,Tag0,unknown
1545003852160,0,38,8.349609375E-6,60,54,42,31641,30249,13681,3960,13986,19282,3065,1334,Tag0,unknown
1545003852160,0,42,9.228515625000002E-6,60,54,42,31641,30249,13681,3960,13986,19282,3065,1334,Tag0,unknown
1545003852160,0,43,9.448242187500001E-6,60,54,42,31641,30249,13681,3960,13986,19282,3065,1334,Tag0,unknown
1545003852160,0,49,1.07666015625E-5,60,54,42,31641,30249,13681,3960,13986,19282,3065,1334,Tag0,unknown
1545003852170,0,53,1.1645507812500002E-5,60,54,42,31641,30249,13681,3960,13986,19282,3065,1334,Tag0,unknown
1545003852171,0,45,9.8876953125E-6,60,54,42,31641,30249,13681,3960,13986,19282,3065,1334,Tag0,unknown
1545003852220,0,25,5.4931640625E-6,60,54,42,31641,30249,13681,3960,13986,19282,3065,1334,Tag0,unknown
1545003852220,0,26,5.712890625E-6,60,54,42,31641,30249,13681,3960,13986,19282,3065,1334,Tag0,unknown
1545003852220,0,50,1.0986328125E-5,60,54,42,31641,30249,13681,3960,13986,19282,3065,1334,Tag0,unknown
1545003852221,0,61,1.34033203125E-5,60,54,42,31641,30249,13681,3960,13986,19282,3065,1334,Tag0,unknown
1545003852221,0,56,1.23046875E-5,60,54,42,31641,30249,13681,3960,13986,19282,3065,1334,Tag0,unknown
1545003852221,0,40,8.7890625E-6,60,54,42,31641,30249,13681,3960,13986,19282,3065,1334,Tag0,unknown
1545003852221,0,35,7.6904296875E-6,60,54,42,31641,30249,13681,3960,13986,19282,3065,1334,Tag0,unknown
1545003852221,0,42,9.228515625000002E-6,60,54,42,31641,30249,13681,3960,13986,19282,3065,1334,Tag0,unknown
1545003852222,0,48,1.0546875E-5,60,54,42,31641,30249,13681,3960,13986,19282,3065,1334,Tag0,unknown
1545003852222,0,42,9.228515625000002E-6,60,54,42,31641,30249,13681,3960,13986,19282,3065,1334,Tag0,unknown
1545003852222,0,41,9.008789062499999E-6,60,54,42,31641,30249,13681,3960,13986,19282,3065,1334,Tag0,unknown
1545003852222,0,44,9.66796875E-6,60,54,42,31641,30249,13681,3960,13986,19282,3065,1334,Tag0,unknown
1545003852222,0,48,1.0546875E-5,60,54,42,31641,30249,13681,3960,13986,19282,3065,1334,Tag0,unknown
1545003852222,0,42,9.228515625000002E-6,60,54,42,31641,30249,13681,3960,13986,19282,3065,1334,Tag0,unknown
1545003852223,0,33,7.2509765625E-6,60,54,42,31641,30249,13681,3960,13986,19282,3065,1334,Tag0,unknown
1545003852223,0,21,4.614257812500001E-6,60,54,42,31641,30249,13681,3960,13986,19282,3065,1334,Tag0,unknown
1545003852223,0,12,2.63671875E-6,60,54,42,31641,30249,13681,3960,13986,19282,3065,1334,Tag0,unknown
1545003852223,0,23,5.0537109375E-6,60,54,42,31641,30249,13681,3960,13986,19282,3065,1334,Tag0,unknown
1545003852224,0,40,8.7890625E-6,60,54,42,31641,30249,13681,3960,13986,19282,3065,1334,Tag0,unknown
1545003852224,0,45,9.8876953125E-6,60,54,42,31641,30249,13681,3960,13986,19282,3065,1334,Tag0,unknown
1545003852224,0,43,9.448242187500001E-6,60,54,42,31641,30249,13681,3960,13986,19282,3065,1334,Tag0,unknown
1545003852224,0,41,9.008789062499999E-6,60,54,42,31641,30249,13681,3960,13986,19282,3065,1334,Tag0,unknown
1545003852224,0,43,9.448242187500001E-6,60,54,42,31641,30249,13681,3960,13986,19282,3065,1334,Tag0,unknown
1545003852225,0,54,1.1865234375000001E-5,60,54,42,31641,30249,13681,3960,13986,19282,3065,1334,Tag0,unknown
1545003852225,0,66,1.4501953125E-5,60,54,42,31641,30249,13681,3960,13986,19282,3065,1334,Tag0,unknown
1545003852225,0,56,1.23046875E-5,60,54,42,31641,30249,13681,3960,13986,19282,3065,1334,Tag0,unknown
1545003852236,0,39,8.5693359375E-6,60,54,42,31641,30249,13681,3960,13986,19282,3065,1334,Tag0,unknown
1545003852236,0,28,6.15234375E-6,60,54,42,31641,30249,13681,3960,13986,19282,3065,1334,Tag0,unknown
1545003852237,0,26,5.712890625E-6,60,54,42,31641,30249,13681,3960,13986,19282,3065,1334,Tag0,unknown
1545003852237,0,36,7.91015625E-6,60,54,42,31641,30249,13681,3960,13986,19282,3065,1334,Tag0,unknown
1545003852237,0,48,1.0546875E-5,60,54,42,31641,30249,13681,3960,13986,19282,3065,1334,Tag0,unknown
1545003852237,0,49,1.07666015625E-5,60,54,42,31641,30249,13681,3960,13986,19282,3065,1334,Tag0,unknown
1545003852237,0,42,9.228515625000002E-6,60,54,42,31641,30249,13681,3960,13986,19282,3065,1334,Tag0,unknown
1545003852238,0,38,8.349609375E-6,60,54,42,31641,30249,13681,3960,13986,19282,3065,1334,Tag0,unknown
1545003852238,0,40,8.7890625E-6,60,54,42,31641,30249,13681,3960,13986,19282,3065,1334,Tag0,unknown
1545003852238,0,50,1.0986328125E-5,60,54,42,31641,30249,13681,3960,13986,19282,3065,1334,Tag0,unknown
1545003852238,0,51,1.1206054687499999E-5,60,54,42,31641,30249,13681,3960,13986,19282,3065,1334,Tag0,unknown
1545003852238,0,38,8.349609375E-6,60,54,42,31641,30249,13681,3960,13986,19282,3065,1334,Tag0,unknown
1545003852239,0,18,3.955078125E-6,60,54,42,31641,30249,13681,3960,13986,19282,3065,1334,Tag0,unknown
1545003852239,0,10,2.197265625E-6,60,54,42,31641,30249,13681,3960,13986,19282,3065,1334,Tag0,unknown
1545003852239,0,24,5.2734375E-6,60,54,42,31641,30249,13681,3960,13986,19282,3065,1334,Tag0,unknown
1545003852267,0,38,8.349609375E-6,60,54,42,31641,30249,13681,3960,13986,19282,3065,1334,Tag0,unknown
1545003852291,0,36,7.91015625E-6,60,54,42,31641,30249,13681,3960,13986,19282,3065,1334,Tag0,unknown
1545003852292,0,35,7.6904296875E-6,60,54,42,31641,30249,13681,3960,13986,19282,3065,1334,Tag0,unknown
1545003852292,0,29,6.3720703125E-6,60,54,42,31641,30249,13681,3960,13986,19282,3065,1334,Tag0,unknown
1545003852292,0,19,4.1748046875E-6,60,54,42,31641,30249,13681,3960,13986,19282,3065,1334,Tag0,unknown
1545003852293,0,3,6.591796875E-7,60,54,42,31641,30249,13681,3960,13986,19282,3065,1334,Tag0,unknown
1545003852293,0,-258,-5.6689453125000004E-5,60,54,42,31641,30249,13681,3960,13986,19282,3065,1334,Tag0,unknown
1545003852293,0,2,4.39453125E-7,60,54,42,31641,30249,13681,3960,13986,19282,3065,1334,Tag0,unknown
1545003852294,0,19,4.1748046875E-6,60,54,42,31641,30249,13681,3960,13986,19282,3065,1334,Tag0,unknown
1545003852294,0,39,8.5693359375E-6,60,54,42,31641,30249,13681,3960,13986,19282,3065,1334,Tag0,unknown
1545003852294,0,38,8.349609375E-6,60,54,42,31641,30249,13681,3960,13986,19282,3065,1334,Tag0,unknown
1545003852294,0,29,6.3720703125E-6,60,54,42,31641,30249,13681,3960,13986,19282,3065,1334,Tag0,unknown
1545003852295,0,28,6.15234375E-6,60,54,42,31641,30249,13681,3960,13986,19282,3065,1334,Tag0,unknown
1545003852295,0,29,6.3720703125E-6,60,54,42,31641,30249,13681,3960,13986,19282,3065,1334,Tag0,unknown
1545003852295,0,34,7.4707031250000005E-6,60,54,42,31641,30249,13681,3960,13986,19282,3065,1334,Tag0,unknown
1545003852296,0,27,5.9326171875000005E-6,60,54,42,31641,30249,13681,3960,13986,19282,3065,1334,Tag0,unknown
1545003852296,0,23,5.0537109375E-6,60,54,42,31641,30249,13681,3960,13986,19282,3065,1334,Tag0,unknown
1545003852296,0,34,7.4707031250000005E-6,60,54,42,31641,30249,13681,3960,13986,19282,3065,1334,Tag0,unknown
1545003852296,0,48,1.0546875E-5,60,54,42,31641,30249,13681,3960,13986,19282,3065,1334,Tag0,unknown
1545003852296,0,67,1.4721679687500002E-5,60,54,42,31641,30249,13681,3960,13986,19282,3065,1334,Tag0,unknown
1545003852297,0,85,1.86767578125E-5,60,54,42,31641,30249,13681,3960,13986,19282,3065,1334,Tag0,unknown
1545003852297,0,96,2.109375E-5,60,54,42,31641,30249,13681,3960,13986,19282,3065,1334,Tag0,unknown
1545003852297,0,96,2.109375E-5,60,54,42,31641,30249,13681,3960,13986,19282,3065,1334,Tag0,unknown
1545003852297,0,102,2.2412109374999998E-5,60,54,42,31641,30249,13681,3960,13986,19282,3065,1334,Tag0,unknown
1545003852297,0,113,2.48291015625E-5,60,54,42,31641,30249,13681,3960,13986,19282,3065,1334,Tag0,unknown
1545003852298,0,104,2.28515625E-5,60,54,42,31641,30249,13681,3960,13986,19282,3065,1334,Tag0,unknown
1545003852298,0,87,1.91162109375E-5,60,54,42,31641,30249,13681,3960,13986,19282,3065,1334,Tag0,unknown
1545003852298,0,88,1.93359375E-5,60,54,42,31641,30249,13681,3960,13986,19282,3065,1334,Tag0,unknown
1545003852298,0,107,2.35107421875E-5,60,54,42,31641,30249,13681,3960,13986,19282,3065,1334,Tag0,unknown
1545003852299,0,120,2.63671875E-5,60,54,42,31641,30249,13681,3960,13986,19282,3065,1334,Tag0,unknown
1545003852299,0,112,2.4609375E-5,60,54,42,31641,30249,13681,3960,13986,19282,3065,1334,Tag0,unknown
1545003852299,0,92,2.021484375E-5,60,54,42,31641,30249,13681,3960,13986,19282,3065,1334,Tag0,unknown
1545003852299,0,89,1.95556640625E-5,60,54,42,31641,30249,13681,3960,13986,19282,3065,1334,Tag0,unknown
1545003852299,0,97,2.13134765625E-5,60,54,42,31641,30249,13681,3960,13986,19282,3065,1334,Tag0,unknown
1545003852300,0,88,1.93359375E-5,60,54,42,31641,30249,13681,3960,13986,19282,3065,1334,Tag0,unknown
1545003852300,0,70,1.5380859375E-5,60,54,42,31641,30249,13681,3960,13986,19282,3065,1334,Tag0,unknown
1545003852300,0,55,1.20849609375E-5,60,54,42,31641,30249,13681,3960,13986,19282,3065,1334,Tag0,unknown
1545003852300,0,50,1.0986328125E-5,60,54,42,31641,30249,13681,3960,13986,19282,3065,1334,Tag0,unknown
1545003852300,0,53,1.1645507812500002E-5,60,54,42,31641,30249,13681,3960,13986,19282,3065,1334,Tag0,unknown
1545003852301,0,66,1.4501953125E-5,60,54,42,31641,30249,13681,3960,13986,19282,3065,1334,Tag0,unknown
1545003852301,0,72,1.58203125E-5,60,54,42,31641,30249,13681,3960,13986,19282,3065,1334,Tag0,unknown
1545003852301,0,68,1.4941406250000001E-5,60,54,42,31641,30249,13681,3960,13986,19282,3065,1334,Tag0,unknown
1545003852301,0,59,1.29638671875E-5,60,54,42,31641,30249,13681,3960,13986,19282,3065,1334,Tag0,unknown
1545003852301,0,57,1.2524414062500001E-5,60,54,42,31641,30249,13681,3960,13986,19282,3065,1334,Tag0,unknown
1545003852302,0,60,1.318359375E-5,60,54,42,31641,30249,13681,3960,13986,19282,3065,1334,Tag0,unknown
1545003852302,0,61,1.34033203125E-5,60,54,42,31641,30249,13681,3960,13986,19282,3065,1334,Tag0,unknown
1545003852302,0,64,1.40625E-5,60,54,42,31641,30249,13681,3960,13986,19282,3065,1334,Tag0,unknown
1545003852302,0,66,1.4501953125E-5,60,54,42,31641,30249,13681,3960,13986,19282,3065,1334,Tag0,unknown
1545003852303,0,74,1.6259765625E-5,60,54,42,31641,30249,13681,3960,13986,19282,3065,1334,Tag0,unknown
1545003852303,0,82,1.8017578124999998E-5,60,54,42,31641,30249,13681,3960,13986,19282,3065,1334,Tag0,unknown
1545003852303,0,77,1.69189453125E-5,60,54,42,31641,30249,13681,3960,13986,19282,3065,1334,Tag0,unknown
1545003852303,0,68,1.4941406250000001E-5,60,54,42,31641,30249,13681,3960,13986,19282,3065,1334,Tag0,unknown
1545003852303,0,64,1.40625E-5,60,54,42,31641,30249,13681,3960,13986,19282,3065,1334,Tag0,unknown
1545003852303,0,68,1.4941406250000001E-5,60,54,42,31641,30249,13681,3960,13986,19282,3065,1334,Tag0,unknown
1545003852304,0,60,1.318359375E-5,60,54,42,31641,30249,13681,3960,13986,19282,3065,1334,Tag0,unknown
1545003852304,0,53,1.1645507812500002E-5,60,54,42,31641,30249,13681,3960,13986,19282,3065,1334,Tag0,unknown
1545003852304,0,56,1.23046875E-5,60,54,42,31641,30249,13681,3960,13986,19282,3065,1334,Tag0,unknown
1545003852304,0,67,1.4721679687500002E-5,60,54,42,31641,30249,13681,3960,13986,19282,3065,1334,Tag0,unknown
1545003852304,0,74,1.6259765625E-5,60,54,42,31641,30249,13681,3960,13986,19282,3065,1334,Tag0,unknown
1545003852305,0,73,1.6040039062500002E-5,60,54,42,31641,30249,13681,3960,13986,19282,3065,1334,Tag0,unknown
1545003852305,0,69,1.51611328125E-5,60,54,42,31641,30249,13681,3960,13986,19282,3065,1334,Tag0,unknown
1545003852305,0,68,1.4941406250000001E-5,60,54,42,31641,30249,13681,3960,13986,19282,3065,1334,Tag0,unknown
1545003852305,0,52,1.142578125E-5,60,54,42,31641,30249,13681,3960,13986,19282,3065,1334,Tag0,unknown
1545003852305,0,36,7.91015625E-6,60,54,42,31641,30249,13681,3960,13986,19282,3065,1334,Tag0,unknown
1545003852305,0,41,9.008789062499999E-6,60,54,42,31641,30249,13681,3960,13986,19282,3065,1334,Tag0,unknown
1545003852307,0,48,1.0546875E-5,60,54,42,31641,30249,13681,3960,13986,19282,3065,1334,Tag0,unknown
1545003852308,0,44,9.66796875E-6,60,54,42,31641,30249,13681,3960,13986,19282,3065,1334,Tag0,unknown
1545003852308,0,43,9.448242187500001E-6,60,54,42,31641,30249,13681,3960,13986,19282,3065,1334,Tag0,unknown
1545003852308,0,52,1.142578125E-5,60,54,42,31641,30249,13681,3960,13986,19282,3065,1334,Tag0,unknown
1545003852309,0,54,1.1865234375000001E-5,60,54,42,31641,30249,13681,3960,13986,19282,3065,1334,Tag0,unknown
1545003852309,0,48,1.0546875E-5,60,54,42,31641,30249,13681,3960,13986,19282,3065,1334,Tag0,unknown
1545003852309,0,36,7.91015625E-6,60,54,42,31641,30249,13681,3960,13986,19282,3065,1334,Tag0,unknown
1545003852309,0,40,8.7890625E-6,60,54,42,31641,30249,13681,3960,13986,19282,3065,1334,Tag0,unknown
1545003852310,0,55,1.20849609375E-5,60,54,42,31641,30249,13681,3960,13986,19282,3065,1334,Tag0,unknown
1545003852310,0,57,1.2524414062500001E-5,60,54,42,31641,30249,13681,3960,13986,19282,3065,1334,Tag0,unknown
1545003852310,0,38,8.349609375E-6,60,54,42,31641,30249,13681,3960,13986,19282,3065,1334,Tag0,unknown
1545003852310,0,27,5.9326171875000005E-6,60,54,42,31641,30249,13681,3960,13986,19282,3065,1334,Tag0,unknown
1545003852311,0,33,7.2509765625E-6,60,54,42,31641,30249,13681,3960,13986,19282,3065,1334,Tag0,unknown
1545003852311,0,44,9.66796875E-6,60,54,42,31641,30249,13681,3960,13986,19282,3065,1334,Tag0,unknown
1545003852311,0,59,1.29638671875E-5,60,54,42,31641,30249,13681,3960,13986,19282,3065,1334,Tag0,unknown
1545003852312,0,67,1.4721679687500002E-5,60,54,42,31641,30249,13681,3960,13986,19282,3065,1334,Tag0,unknown
1545003852312,0,64,1.40625E-5,60,54,42,31641,30249,13681,3960,13986,19282,3065,1334,Tag0,unknown
1545003852312,0,49,1.07666015625E-5,60,54,42,31641,30249,13681,3960,13986,19282,3065,1334,Tag0,unknown
1545003852312,0,43,9.448242187500001E-6,60,54,42,31641,30249,13681,3960,13986,19282,3065,1334,Tag0,unknown
1545003852312,0,51,1.1206054687499999E-5,60,54,42,31641,30249,13681,3960,13986,19282,3065,1334,Tag0,unknown
1545003852313,0,53,1.1645507812500002E-5,60,54,42,31641,30249,13681,3960,13986,19282,3065,1334,Tag0,unknown
1545003852313,0,59,1.29638671875E-5,60,54,42,31641,30249,13681,3960,13986,19282,3065,1334,Tag0,unknown
1545003852313,0,67,1.4721679687500002E-5,60,54,42,31641,30249,13681,3960,13986,19282,3065,1334,Tag0,unknown
1545003852313,0,57,1.2524414062500001E-5,60,54,42,31641,30249,13681,3960,13986,19282,3065,1334,Tag0,unknown
1545003852313,0,44,9.66796875E-6,60,54,42,31641,30249,13681,3960,13986,19282,3065,1334,Tag0,unknown
1545003852314,0,48,1.0546875E-5,60,54,42,31641,30249,13681,3960,13986,19282,3065,1334,Tag0,unknown
1545003852314,0,55,1.20849609375E-5,60,54,42,31641,30249,13681,3960,13986,19282,3065,1334,Tag0,unknown
1545003852315,0,75,1.64794921875E-5,60,54,42,31641,30249,13681,3960,13986,19282,3065,1334,Tag0,unknown
1545003852315,0,96,2.109375E-5,60,54,42,31641,30249,13681,3960,13986,19282,3065,1334,Tag0,unknown
1545003852316,0,99,2.1752929687500003E-5,60,54,42,31641,30249,13681,3960,13986,19282,3065,1334,Tag0,unknown
1545003852316,0,83,1.82373046875E-5,60,54,42,31641,30249,13681,3960,13986,19282,3065,1334,Tag0,unknown
1545003852317,0,67,1.4721679687500002E-5,60,54,42,31641,30249,13681,3960,13986,19282,3065,1334,Tag0,unknown
1545003852317,0,54,1.1865234375000001E-5,60,54,42,31641,30249,13681,3960,13986,19282,3065,1334,Tag0,unknown
1545003852317,0,56,1.23046875E-5,60,54,42,31641,30249,13681,3960,13986,19282,3065,1334,Tag0,unknown
1545003852318,0,64,1.40625E-5,60,54,42,31641,30249,13681,3960,13986,19282,3065,1334,Tag0,unknown
1545003852318,0,56,1.23046875E-5,60,54,42,31641,30249,13681,3960,13986,19282,3065,1334,Tag0,unknown
1545003852318,0,55,1.20849609375E-5,60,54,42,31641,30249,13681,3960,13986,19282,3065,1334,Tag0,unknown
1545003852318,0,64,1.40625E-5,60,54,42,31641,30249,13681,3960,13986,19282,3065,1334,Tag0,unknown
1545003852319,0,56,1.23046875E-5,60,54,42,31641,30249,13681,3960,13986,19282,3065,1334,Tag0,unknown
1545003852320,0,43,9.448242187500001E-6,60,54,42,31641,30249,13681,3960,13986,19282,3065,1334,Tag0,unknown
1545003852320,0,43,9.448242187500001E-6,60,54,42,31641,30249,13681,3960,13986,19282,3065,1334,Tag0,unknown
1545003852322,0,42,9.228515625000002E-6,60,54,42,31641,30249,13681,3960,13986,19282,3065,1334,Tag0,unknown
1545003852322,0,38,8.349609375E-6,60,54,42,31641,30249,13681,3960,13986,19282,3065,1334,Tag0,unknown
1545003852323,0,40,8.7890625E-6,60,54,42,31641,30249,13681,3960,13986,19282,3065,1334,Tag0,unknown
1545003852323,0,51,1.1206054687499999E-5,60,54,42,31641,30249,13681,3960,13986,19282,3065,1334,Tag0,unknown
1545003852323,0,50,1.0986328125E-5,60,54,42,31641,30249,13681,3960,13986,19282,3065,1334,Tag0,unknown
1545003852323,0,35,7.6904296875E-6,60,54,42,31641,30249,13681,3960,13986,19282,3065,1334,Tag0,unknown
1545003852323,0,28,6.15234375E-6,60,54,42,31641,30249,13681,3960,13986,19282,3065,1334,Tag0,unknown
1545003852323,0,40,8.7890625E-6,60,54,42,31641,30249,13681,3960,13986,19282,3065,1334,Tag0,unknown
1545003852324,0,59,1.29638671875E-5,60,54,42,31641,30249,13681,3960,13986,19282,3065,1334,Tag0,unknown
1545003852324,0,73,1.6040039062500002E-5,60,54,42,31641,30249,13681,3960,13986,19282,3065,1334,Tag0,unknown
1545003852324,0,82,1.8017578124999998E-5,60,54,42,31641,30249,13681,3960,13986,19282,3065,1334,Tag0,unknown
1545003852324,0,73,1.6040039062500002E-5,60,54,42,31641,30249,13681,3960,13986,19282,3065,1334,Tag0,unknown
1545003852325,0,54,1.1865234375000001E-5,60,54,42,31641,30249,13681,3960,13986,19282,3065,1334,Tag0,unknown
1545003852325,0,42,9.228515625000002E-6,60,54,42,31641,30249,13681,3960,13986,19282,3065,1334,Tag0,unknown
1545003852325,0,48,1.0546875E-5,60,54,42,31641,30249,13681,3960,13986,19282,3065,1334,Tag0,unknown
1545003852325,0,52,1.142578125E-5,60,54,42,31641,30249,13681,3960,13986,19282,3065,1334,Tag0,unknown
1545003852325,0,43,9.448242187500001E-6,60,54,42,31641,30249,13681,3960,13986,19282,3065,1334,Tag0,unknown
1545003852325,0,36,7.91015625E-6,60,54,42,31641,30249,13681,3960,13986,19282,3065,1334,Tag0,unknown
1545003852326,0,42,9.228515625000002E-6,60,54,42,31641,30249,13681,3960,13986,19282,3065,1334,Tag0,unknown
1545003852326,0,52,1.142578125E-5,60,54,42,31641,30249,13681,3960,13986,19282,3065,1334,Tag0,unknown
1545003852326,0,49,1.07666015625E-5,60,54,42,31641,30249,13681,3960,13986,19282,3065,1334,Tag0,unknown
1545003852326,0,37,8.1298828125E-6,60,54,42,31641,30249,13681,3960,13986,19282,3065,1334,Tag0,unknown
1545003852327,0,39,8.5693359375E-6,60,54,42,31641,30249,13681,3960,13986,19282,3065,1334,Tag0,unknown
1545003852327,0,49,1.07666015625E-5,60,54,42,31641,30249,13681,3960,13986,19282,3065,1334,Tag0,unknown
1545003852327,0,43,9.448242187500001E-6,60,54,42,31641,30249,13681,3960,13986,19282,3065,1334,Tag0,unknown
1545003852327,0,26,5.712890625E-6,60,54,42,31641,30249,13681,3960,13986,19282,3065,1334,Tag0,unknown
1545003852327,0,21,4.614257812500001E-6,60,54,42,31641,30249,13681,3960,13986,19282,3065,1334,Tag0,unknown
1545003852328,0,22,4.833984375E-6,60,54,42,31641,30249,13681,3960,13986,19282,3065,1334,Tag0,unknown
1545003852328,0,27,5.9326171875000005E-6,60,54,42,31641,30249,13681,3960,13986,19282,3065,1334,Tag0,unknown
1545003852328,0,38,8.349609375E-6,60,54,42,31641,30249,13681,3960,13986,19282,3065,1334,Tag0,unknown
1545003852328,0,49,1.07666015625E-5,60,54,42,31641,30249,13681,3960,13986,19282,3065,1334,Tag0,unknown
1545003852328,0,40,8.7890625E-6,60,54,42,31641,30249,13681,3960,13986,19282,3065,1334,Tag0,unknown
1545003852328,0,36,7.91015625E-6,60,54,42,31641,30249,13681,3960,13986,19282,3065,1334,Tag0,unknown
1545003852329,0,52,1.142578125E-5,60,54,42,31641,30249,13681,3960,13986,19282,3065,1334,Tag0,unknown
1545003852330,0,69,1.51611328125E-5,60,54,42,31641,30249,13681,3960,13986,19282,3065,1334,Tag0,unknown
1545003852330,0,67,1.4721679687500002E-5,60,54,42,31641,30249,13681,3960,13986,19282,3065,1334,Tag0,unknown
1545003852330,0,55,1.20849609375E-5,60,54,42,31641,30249,13681,3960,13986,19282,3065,1334,Tag0,unknown
1545003852332,0,45,9.8876953125E-6,60,54,42,31641,30249,13681,3960,13986,19282,3065,1334,Tag0,unknown
1545003852333,0,42,9.228515625000002E-6,60,54,42,31641,30249,13681,3960,13986,19282,3065,1334,Tag0,unknown
1545003852333,0,42,9.228515625000002E-6,60,54,42,31641,30249,13681,3960,13986,19282,3065,1334,Tag0,unknown
1545003852333,0,51,1.1206054687499999E-5,60,54,42,31641,30249,13681,3960,13986,19282,3065,1334,Tag0,unknown
1545003852333,0,69,1.51611328125E-5,60,54,42,31641,30249,13681,3960,13986,19282,3065,1334,Tag0,unknown
1545003852333,0,87,1.91162109375E-5,60,54,42,31641,30249,13681,3960,13986,19282,3065,1334,Tag0,unknown
1545003852334,0,91,1.99951171875E-5,60,54,42,31641,30249,13681,3960,13986,19282,3065,1334,Tag0,unknown
1545003852334,0,97,2.13134765625E-5,60,54,42,31641,30249,13681,3960,13986,19282,3065,1334,Tag0,unknown
1545003852334,0,93,2.04345703125E-5,60,54,42,31641,30249,13681,3960,13986,19282,3065,1334,Tag0,unknown
1545003852334,0,88,1.93359375E-5,60,54,42,31641,30249,13681,3960,13986,19282,3065,1334,Tag0,unknown
1545003852334,0,86,1.8896484375000003E-5,60,54,42,31641,30249,13681,3960,13986,19282,3065,1334,Tag0,unknown
1545003852334,0,86,1.8896484375000003E-5,60,54,42,31641,30249,13681,3960,13986,19282,3065,1334,Tag0,unknown
1545003852334,0,93,2.04345703125E-5,60,54,42,31641,30249,13681,3960,13986,19282,3065,1334,Tag0,unknown
1545003852335,0,105,2.30712890625E-5,60,54,42,31641,30249,13681,3960,13986,19282,3065,1334,Tag0,unknown
1545003852335,0,113,2.48291015625E-5,60,54,42,31641,30249,13681,3960,13986,19282,3065,1334,Tag0,unknown
1545003852335,0,108,2.3730468750000002E-5,60,54,42,31641,30249,13681,3960,13986,19282,3065,1334,Tag0,unknown
1545003852335,0,114,2.5048828125000003E-5,60,54,42,31641,30249,13681,3960,13986,19282,3065,1334,Tag0,unknown
1545003852335,0,117,2.5708007812499998E-5,60,54,42,31641,30249,13681,3960,13986,19282,3065,1334,Tag0,unknown
1545003852336,0,122,2.6806640625E-5,60,54,42,31641,30249,13681,3960,13986,19282,3065,1334,Tag0,unknown
1545003852336,0,-128,-2.8125E-5,60,54,42,31641,30249,13681,3960,13986,19282,3065,1334,Tag0,unknown
1545003852336,0,122,2.6806640625E-5,60,54,42,31641,30249,13681,3960,13986,19282,3065,1334,Tag0,unknown
1545003852336,0,104,2.28515625E-5,60,54,42,31641,30249,13681,3960,13986,19282,3065,1334,Tag0,unknown
1545003852336,0,81,1.77978515625E-5,60,54,42,31641,30249,13681,3960,13986,19282,3065,1334,Tag0,unknown
1545003852336,0,64,1.40625E-5,60,54,42,31641,30249,13681,3960,13986,19282,3065,1334,Tag0,unknown
1545003852336,0,58,1.2744140625E-5,60,54,42,31641,30249,13681,3960,13986,19282,3065,1334,Tag0,unknown
1545003852337,0,53,1.1645507812500002E-5,60,54,42,31641,30249,13681,3960,13986,19282,3065,1334,Tag0,unknown
1545003852337,0,51,1.1206054687499999E-5,60,54,42,31641,30249,13681,3960,13986,19282,3065,1334,Tag0,unknown
1545003852337,0,50,1.0986328125E-5,60,54,42,31641,30249,13681,3960,13986,19282,3065,1334,Tag0,unknown
1545003852342,0,53,1.1645507812500002E-5,60,54,42,31641,30249,13681,3960,13986,19282,3065,1334,Tag0,unknown
1545003852342,0,44,9.66796875E-6,60,54,42,31641,30249,13681,3960,13986,19282,3065,1334,Tag0,unknown
1545003852342,0,37,8.1298828125E-6,60,54,42,31641,30249,13681,3960,13986,19282,3065,1334,Tag0,unknown
1545003852343,0,36,7.91015625E-6,60,54,42,31641,30249,13681,3960,13986,19282,3065,1334,Tag0,unknown
1545003852343,0,27,5.9326171875000005E-6,60,54,42,31641,30249,13681,3960,13986,19282,3065,1334,Tag0,unknown
1545003852344,0,37,8.1298828125E-6,60,54,42,31641,30249,13681,3960,13986,19282,3065,1334,Tag0,unknown
1545003852344,0,54,1.1865234375000001E-5,60,54,42,31641,30249,13681,3960,13986,19282,3065,1334,Tag0,unknown
1545003852344,0,70,1.5380859375E-5,60,54,42,31641,30249,13681,3960,13986,19282,3065,1334,Tag0,unknown
1545003852352,0,75,1.64794921875E-5,60,54,42,31641,30249,13681,3960,13986,19282,3065,1334,Tag0,unknown
1545003852353,0,75,1.64794921875E-5,60,54,42,31641,30249,13681,3960,13986,19282,3065,1334,Tag0,unknown
1545003852353,0,73,1.6040039062500002E-5,60,54,42,31641,30249,13681,3960,13986,19282,3065,1334,Tag0,unknown
1545003852353,0,85,1.86767578125E-5,60,54,42,31641,30249,13681,3960,13986,19282,3065,1334,Tag0,unknown
1545003852353,0,101,2.2192382812500002E-5,60,54,42,31641,30249,13681,3960,13986,19282,3065,1334,Tag0,unknown
1545003852353,0,103,2.26318359375E-5,60,54,42,31641,30249,13681,3960,13986,19282,3065,1334,Tag0,unknown
1545003852354,0,100,2.197265625E-5,60,54,42,31641,30249,13681,3960,13986,19282,3065,1334,Tag0,unknown
1545003852386,0,97,2.13134765625E-5,60,54,42,31641,30249,13681,3960,13986,19282,3065,1334,Tag0,unknown
1545003852405,0,96,2.109375E-5,60,54,42,31641,30249,13681,3960,13986,19282,3065,1334,Tag0,unknown
1545003852405,0,103,2.26318359375E-5,60,54,42,31641,30249,13681,3960,13986,19282,3065,1334,Tag0,unknown
1545003852405,0,107,2.35107421875E-5,60,54,42,31641,30249,13681,3960,13986,19282,3065,1334,Tag0,unknown
1545003852406,0,112,2.4609375E-5,60,54,42,31641,30249,13681,3960,13986,19282,3065,1334,Tag0,unknown
1545003852406,0,116,2.548828125E-5,60,54,42,31641,30249,13681,3960,13986,19282,3065,1334,Tag0,unknown
1545003852406,0,115,2.52685546875E-5,60,54,42,31641,30249,13681,3960,13986,19282,3065,1334,Tag0,unknown
1545003852406,0,116,2.548828125E-5,60,54,42,31641,30249,13681,3960,13986,19282,3065,1334,Tag0,unknown
1545003852406,0,118,2.5927734375E-5,60,54,42,31641,30249,13681,3960,13986,19282,3065,1334,Tag0,unknown
1545003852407,0,106,2.3291015625000003E-5,60,54,42,31641,30249,13681,3960,13986,19282,3065,1334,Tag0,unknown
1545003852407,0,83,1.82373046875E-5,60,54,42,31641,30249,13681,3960,13986,19282,3065,1334,Tag0,unknown
1545003852407,0,65,1.42822265625E-5,60,54,42,31641,30249,13681,3960,13986,19282,3065,1334,Tag0,unknown
1545003852407,0,51,1.1206054687499999E-5,60,54,42,31641,30249,13681,3960,13986,19282,3065,1334,Tag0,unknown
1545003852407,0,41,9.008789062499999E-6,60,54,42,31641,30249,13681,3960,13986,19282,3065,1334,Tag0,unknown
1545003852408,0,42,9.228515625000002E-6,60,54,42,31641,30249,13681,3960,13986,19282,3065,1334,Tag0,unknown
1545003852408,0,48,1.0546875E-5,60,54,42,31641,30249,13681,3960,13986,19282,3065,1334,Tag0,unknown
1545003852408,0,49,1.07666015625E-5,60,54,42,31641,30249,13681,3960,13986,19282,3065,1334,Tag0,unknown
1545003852408,0,55,1.20849609375E-5,60,54,42,31641,30249,13681,3960,13986,19282,3065,1334,Tag0,unknown
1545003852408,0,61,1.34033203125E-5,60,54,42,31641,30249,13681,3960,13986,19282,3065,1334,Tag0,unknown
1545003852409,0,65,1.42822265625E-5,60,54,42,31641,30249,13681,3960,13986,19282,3065,1334,Tag0,unknown
1545003852409,0,66,1.4501953125E-5,60,54,42,31641,30249,13681,3960,13986,19282,3065,1334,Tag0,unknown
1545003852409,0,69,1.51611328125E-5,60,54,42,31641,30249,13681,3960,13986,19282,3065,1334,Tag0,unknown
1545003852409,0,72,1.58203125E-5,60,54,42,31641,30249,13681,3960,13986,19282,3065,1334,Tag0,unknown
1545003852409,0,75,1.64794921875E-5,60,54,42,31641,30249,13681,3960,13986,19282,3065,1334,Tag0,unknown
1545003852410,0,69,1.51611328125E-5,60,54,42,31641,30249,13681,3960,13986,19282,3065,1334,Tag0,unknown
1545003852410,0,50,1.0986328125E-5,60,54,42,31641,30249,13681,3960,13986,19282,3065,1334,Tag0,unknown
1545003852410,0,42,9.228515625000002E-6,60,54,42,31641,30249,13681,3960,13986,19282,3065,1334,Tag0,unknown
1545003852421,0,57,1.2524414062500001E-5,60,54,42,31641,30249,13681,3960,13986,19282,3065,1334,Tag0,unknown
1545003852446,0,81,1.77978515625E-5,60,54,42,31641,30249,13681,3960,13986,19282,3065,1334,Tag0,unknown
1545003852455,0,92,2.021484375E-5,60,54,42,31641,30249,13681,3960,13986,19282,3065,1334,Tag0,unknown
1545003852456,0,100,2.197265625E-5,60,54,42,31641,30249,13681,3960,13986,19282,3065,1334,Tag0,unknown
1545003852471,0,99,2.1752929687500003E-5,60,54,42,31641,30249,13681,3960,13986,19282,3065,1334,Tag0,unknown
1545003852471,0,96,2.109375E-5,60,54,42,31641,30249,13681,3960,13986,19282,3065,1334,Tag0,unknown
1545003852472,0,97,2.13134765625E-5,60,54,42,31641,30249,13681,3960,13986,19282,3065,1334,Tag0,unknown
1545003852472,0,88,1.93359375E-5,60,54,42,31641,30249,13681,3960,13986,19282,3065,1334,Tag0,unknown
1545003852472,0,70,1.5380859375E-5,60,54,42,31641,30249,13681,3960,13986,19282,3065,1334,Tag0,unknown
1545003852472,0,49,1.07666015625E-5,60,54,42,31641,30249,13681,3960,13986,19282,3065,1334,Tag0,unknown
1545003852472,0,54,1.1865234375000001E-5,60,54,42,31641,30249,13681,3960,13986,19282,3065,1334,Tag0,unknown
1545003852473,0,54,1.1865234375000001E-5,60,54,42,31641,30249,13681,3960,13986,19282,3065,1334,Tag0,unknown
1545003852476,0,41,9.008789062499999E-6,61,53,42,15454,14384,6867,2578,11524,4136,2871,3636,Tag0,unknown
1545003852476,0,26,5.712890625E-6,61,53,42,15454,14384,6867,2578,11524,4136,2871,3636,Tag0,unknown
1545003852476,0,28,6.15234375E-6,61,53,42,15454,14384,6867,2578,11524,4136,2871,3636,Tag0,unknown
1545003852477,0,41,9.008789062499999E-6,61,53,42,15454,14384,6867,2578,11524,4136,2871,3636,Tag0,unknown
1545003852477,0,40,8.7890625E-6,61,53,42,15454,14384,6867,2578,11524,4136,2871,3636,Tag0,unknown
1545003852477,0,35,7.6904296875E-6,61,53,42,15454,14384,6867,2578,11524,4136,2871,3636,Tag0,unknown
1545003852477,0,32,7.03125E-6,61,53,42,15454,14384,6867,2578,11524,4136,2871,3636,Tag0,unknown
1545003852477,0,24,5.2734375E-6,61,53,42,15454,14384,6867,2578,11524,4136,2871,3636,Tag0,unknown
1545003852478,0,24,5.2734375E-6,61,53,42,15454,14384,6867,2578,11524,4136,2871,3636,Tag0,unknown
1545003852478,0,21,4.614257812500001E-6,61,53,42,15454,14384,6867,2578,11524,4136,2871,3636,Tag0,unknown
1545003852478,0,8,1.7578125E-6,61,53,42,15454,14384,6867,2578,11524,4136,2871,3636,Tag0,unknown
1545003852478,0,-259,-5.69091796875E-5,61,53,42,15454,14384,6867,2578,11524,4136,2871,3636,Tag0,unknown
1545003852478,0,-269,-5.9106445312499996E-5,61,53,42,15454,14384,6867,2578,11524,4136,2871,3636,Tag0,unknown
1545003852479,0,-261,-5.73486328125E-5,61,53,42,15454,14384,6867,2578,11524,4136,2871,3636,Tag0,unknown
1545003852479,0,6,1.318359375E-6,61,53,42,15454,14384,6867,2578,11524,4136,2871,3636,Tag0,unknown
1545003852479,0,29,6.3720703125E-6,61,53,42,15454,14384,6867,2578,11524,4136,2871,3636,Tag0,unknown
1545003852479,0,41,9.008789062499999E-6,61,53,42,15454,14384,6867,2578,11524,4136,2871,3636,Tag0,unknown
1545003852479,0,37,8.1298828125E-6,61,53,42,15454,14384,6867,2578,11524,4136,2871,3636,Tag0,unknown
1545003852479,0,41,9.008789062499999E-6,61,53,42,15454,14384,6867,2578,11524,4136,2871,3636,Tag0,unknown
1545003852480,0,66,1.4501953125E-5,61,53,42,15454,14384,6867,2578,11524,4136,2871,3636,Tag0,unknown
1545003852480,0,85,1.86767578125E-5,61,53,42,15454,14384,6867,2578,11524,4136,2871,3636,Tag0,unknown
1545003852480,0,97,2.13134765625E-5,61,53,42,15454,14384,6867,2578,11524,4136,2871,3636,Tag0,unknown
1545003852490,0,102,2.2412109374999998E-5,61,53,42,15454,14384,6867,2578,11524,4136,2871,3636,Tag0,unknown
1545003852507,0,102,2.2412109374999998E-5,61,53,42,15454,14384,6867,2578,11524,4136,2871,3636,Tag0,unknown
1545003852519,0,103,2.26318359375E-5,61,53,42,15454,14384,6867,2578,11524,4136,2871,3636,Tag0,unknown
1545003852520,0,103,2.26318359375E-5,61,53,42,15454,14384,6867,2578,11524,4136,2871,3636,Tag0,unknown
1545003852521,0,109,2.39501953125E-5,61,53,42,15454,14384,6867,2578,11524,4136,2871,3636,Tag0,unknown
1545003852536,0,106,2.3291015625000003E-5,61,53,42,15454,14384,6867,2578,11524,4136,2871,3636,Tag0,unknown
1545003852537,0,97,2.13134765625E-5,61,53,42,15454,14384,6867,2578,11524,4136,2871,3636,Tag0,unknown
1545003852537,0,96,2.109375E-5,61,53,42,15454,14384,6867,2578,11524,4136,2871,3636,Tag0,unknown
1545003852537,0,107,2.35107421875E-5,61,53,42,15454,14384,6867,2578,11524,4136,2871,3636,Tag0,unknown
1545003852537,0,114,2.5048828125000003E-5,61,53,42,15454,14384,6867,2578,11524,4136,2871,3636,Tag0,unknown
1545003852537,0,98,2.1533203125E-5,61,53,42,15454,14384,6867,2578,11524,4136,2871,3636,Tag0,unknown
1545003852538,0,83,1.82373046875E-5,61,53,42,15454,14384,6867,2578,11524,4136,2871,3636,Tag0,unknown
1545003852538,0,59,1.29638671875E-5,61,53,42,15454,14384,6867,2578,11524,4136,2871,3636,Tag0,unknown
1545003852538,0,34,7.4707031250000005E-6,61,53,42,15454,14384,6867,2578,11524,4136,2871,3636,Tag0,unknown
1545003852538,0,33,7.2509765625E-6,61,53,42,15454,14384,6867,2578,11524,4136,2871,3636,Tag0,unknown
1545003852539,0,43,9.448242187500001E-6,61,53,42,15454,14384,6867,2578,11524,4136,2871,3636,Tag0,unknown
1545003852539,0,43,9.448242187500001E-6,61,53,42,15454,14384,6867,2578,11524,4136,2871,3636,Tag0,unknown
1545003852539,0,38,8.349609375E-6,61,53,42,15454,14384,6867,2578,11524,4136,2871,3636,Tag0,unknown
1545003852539,0,37,8.1298828125E-6,61,53,42,15454,14384,6867,2578,11524,4136,2871,3636,Tag0,unknown
1545003852539,0,48,1.0546875E-5,61,53,42,15454,14384,6867,2578,11524,4136,2871,3636,Tag0,unknown
1545003852540,0,60,1.318359375E-5,61,53,42,15454,14384,6867,2578,11524,4136,2871,3636,Tag0,unknown
1545003852540,0,76,1.669921875E-5,61,53,42,15454,14384,6867,2578,11524,4136,2871,3636,Tag0,unknown
1545003852540,0,86,1.8896484375000003E-5,61,53,42,15454,14384,6867,2578,11524,4136,2871,3636,Tag0,unknown
1545003852540,0,82,1.8017578124999998E-5,61,53,42,15454,14384,6867,2578,11524,4136,2871,3636,Tag0,unknown
1545003852540,0,70,1.5380859375E-5,61,53,42,15454,14384,6867,2578,11524,4136,2871,3636,Tag0,unknown
1545003852540,0,61,1.34033203125E-5,61,53,42,15454,14384,6867,2578,11524,4136,2871,3636,Tag0,unknown
1545003852541,0,64,1.40625E-5,61,53,42,15454,14384,6867,2578,11524,4136,2871,3636,Tag0,unknown
1545003852541,0,70,1.5380859375E-5,61,53,42,15454,14384,6867,2578,11524,4136,2871,3636,Tag0,unknown
1545003852541,0,61,1.34033203125E-5,61,53,42,15454,14384,6867,2578,11524,4136,2871,3636,Tag0,unknown
1545003852542,0,43,9.448242187500001E-6,61,53,42,15454,14384,6867,2578,11524,4136,2871,3636,Tag0,unknown
1545003852542,0,40,8.7890625E-6,61,53,42,15454,14384,6867,2578,11524,4136,2871,3636,Tag0,unknown
1545003852542,0,59,1.29638671875E-5,61,53,42,15454,14384,6867,2578,11524,4136,2871,3636,Tag0,unknown
1545003852566,0,69,1.51611328125E-5,61,53,42,15454,14384,6867,2578,11524,4136,2871,3636,Tag0,unknown
1545003852568,0,85,1.86767578125E-5,61,53,42,15454,14384,6867,2578,11524,4136,2871,3636,Tag0,unknown
1545003852569,0,101,2.2192382812500002E-5,61,53,42,15454,14384,6867,2578,11524,4136,2871,3636,Tag0,unknown
1545003852569,0,99,2.1752929687500003E-5,61,53,42,15454,14384,6867,2578,11524,4136,2871,3636,Tag0,unknown
1545003852587,0,85,1.86767578125E-5,61,53,42,15454,14384,6867,2578,11524,4136,2871,3636,Tag0,unknown
1545003852587,0,69,1.51611328125E-5,61,53,42,15454,14384,6867,2578,11524,4136,2871,3636,Tag0,unknown
1545003852588,0,59,1.29638671875E-5,61,53,42,15454,14384,6867,2578,11524,4136,2871,3636,Tag0,unknown
1545003852588,0,55,1.20849609375E-5,61,53,42,15454,14384,6867,2578,11524,4136,2871,3636,Tag0,unknown
1545003852588,0,49,1.07666015625E-5,61,53,42,15454,14384,6867,2578,11524,4136,2871,3636,Tag0,unknown
1545003852588,0,45,9.8876953125E-6,61,53,42,15454,14384,6867,2578,11524,4136,2871,3636,Tag0,unknown
1545003852588,0,37,8.1298828125E-6,61,53,42,15454,14384,6867,2578,11524,4136,2871,3636,Tag0,unknown
1545003852589,0,21,4.614257812500001E-6,61,53,42,15454,14384,6867,2578,11524,4136,2871,3636,Tag0,unknown
1545003852589,0,23,5.0537109375E-6,61,53,42,15454,14384,6867,2578,11524,4136,2871,3636,Tag0,unknown
1545003852589,0,25,5.4931640625E-6,61,53,42,15454,14384,6867,2578,11524,4136,2871,3636,Tag0,unknown
1545003852589,0,20,4.39453125E-6,61,53,42,15454,14384,6867,2578,11524,4136,2871,3636,Tag0,unknown
1545003852589,0,18,3.955078125E-6,61,53,42,15454,14384,6867,2578,11524,4136,2871,3636,Tag0,unknown
1545003852590,0,32,7.03125E-6,61,53,42,15454,14384,6867,2578,11524,4136,2871,3636,Tag0,unknown
1545003852590,0,45,9.8876953125E-6,61,53,42,15454,14384,6867,2578,11524,4136,2871,3636,Tag0,unknown
1545003852590,0,49,1.07666015625E-5,61,53,42,15454,14384,6867,2578,11524,4136,2871,3636,Tag0,unknown
1545003852590,0,52,1.142578125E-5,61,53,42,15454,14384,6867,2578,11524,4136,2871,3636,Tag0,unknown
1545003852590,0,64,1.40625E-5,61,53,42,15454,14384,6867,2578,11524,4136,2871,3636,Tag0,unknown
1545003852591,0,80,1.7578125E-5,61,53,42,15454,14384,6867,2578,11524,4136,2871,3636,Tag0,unknown
1545003852591,0,98,2.1533203125E-5,61,53,42,15454,14384,6867,2578,11524,4136,2871,3636,Tag0,unknown
1545003852591,0,96,2.109375E-5,61,53,42,15454,14384,6867,2578,11524,4136,2871,3636,Tag0,unknown
1545003852591,0,74,1.6259765625E-5,61,53,42,15454,14384,6867,2578,11524,4136,2871,3636,Tag0,unknown
1545003852591,0,59,1.29638671875E-5,61,53,42,15454,14384,6867,2578,11524,4136,2871,3636,Tag0,unknown
1545003852602,0,68,1.4941406250000001E-5,61,53,42,15454,14384,6867,2578,11524,4136,2871,3636,Tag0,unknown
1545003852603,0,86,1.8896484375000003E-5,61,53,42,15454,14384,6867,2578,11524,4136,2871,3636,Tag0,unknown
1545003852603,0,96,2.109375E-5,61,53,42,15454,14384,6867,2578,11524,4136,2871,3636,Tag0,unknown
1545003852603,0,91,1.99951171875E-5,61,53,42,15454,14384,6867,2578,11524,4136,2871,3636,Tag0,unknown
1545003852604,0,77,1.69189453125E-5,61,53,42,15454,14384,6867,2578,11524,4136,2871,3636,Tag0,unknown
1545003852647,0,65,1.42822265625E-5,61,53,42,15454,14384,6867,2578,11524,4136,2871,3636,Tag0,unknown
1545003852647,0,69,1.51611328125E-5,61,53,42,15454,14384,6867,2578,11524,4136,2871,3636,Tag0,unknown
1545003852647,0,88,1.93359375E-5,61,53,42,15454,14384,6867,2578,11524,4136,2871,3636,Tag0,unknown
1545003852647,0,100,2.197265625E-5,61,53,42,15454,14384,6867,2578,11524,4136,2871,3636,Tag0,unknown
1545003852648,0,88,1.93359375E-5,61,53,42,15454,14384,6867,2578,11524,4136,2871,3636,Tag0,unknown
1545003852648,0,75,1.64794921875E-5,61,53,42,15454,14384,6867,2578,11524,4136,2871,3636,Tag0,unknown
1545003852648,0,72,1.58203125E-5,61,53,42,15454,14384,6867,2578,11524,4136,2871,3636,Tag0,unknown
1545003852648,0,53,1.1645507812500002E-5,61,53,42,15454,14384,6867,2578,11524,4136,2871,3636,Tag0,unknown
1545003852648,0,33,7.2509765625E-6,61,53,42,15454,14384,6867,2578,11524,4136,2871,3636,Tag0,unknown
1545003852648,0,32,7.03125E-6,61,53,42,15454,14384,6867,2578,11524,4136,2871,3636,Tag0,unknown
1545003852649,0,42,9.228515625000002E-6,61,53,42,15454,14384,6867,2578,11524,4136,2871,3636,Tag0,unknown
1545003852649,0,48,1.0546875E-5,61,53,42,15454,14384,6867,2578,11524,4136,2871,3636,Tag0,unknown
1545003852649,0,29,6.3720703125E-6,61,53,42,15454,14384,6867,2578,11524,4136,2871,3636,Tag0,unknown
1545003852649,0,10,2.197265625E-6,61,53,42,15454,14384,6867,2578,11524,4136,2871,3636,Tag0,unknown
1545003852650,0,18,3.955078125E-6,61,53,42,15454,14384,6867,2578,11524,4136,2871,3636,Tag0,unknown
1545003852650,0,35,7.6904296875E-6,61,53,42,15454,14384,6867,2578,11524,4136,2871,3636,Tag0,unknown
1545003852650,0,43,9.448242187500001E-6,61,53,42,15454,14384,6867,2578,11524,4136,2871,3636,Tag0,unknown
1545003852650,0,48,1.0546875E-5,61,53,42,15454,14384,6867,2578,11524,4136,2871,3636,Tag0,unknown
1545003852651,0,43,9.448242187500001E-6,61,53,42,15454,14384,6867,2578,11524,4136,2871,3636,Tag0,unknown
1545003852651,0,48,1.0546875E-5,61,53,42,15454,14384,6867,2578,11524,4136,2871,3636,Tag0,unknown
1545003852651,0,60,1.318359375E-5,61,53,42,15454,14384,6867,2578,11524,4136,2871,3636,Tag0,unknown
1545003852651,0,71,1.56005859375E-5,61,53,42,15454,14384,6867,2578,11524,4136,2871,3636,Tag0,unknown
1545003852652,0,73,1.6040039062500002E-5,61,53,42,15454,14384,6867,2578,11524,4136,2871,3636,Tag0,unknown
1545003852652,0,67,1.4721679687500002E-5,61,53,42,15454,14384,6867,2578,11524,4136,2871,3636,Tag0,unknown
1545003852652,0,60,1.318359375E-5,61,53,42,15454,14384,6867,2578,11524,4136,2871,3636,Tag0,unknown
1545003852653,0,54,1.1865234375000001E-5,61,53,42,15454,14384,6867,2578,11524,4136,2871,3636,Tag0,unknown
1545003852653,0,56,1.23046875E-5,61,53,42,15454,14384,6867,2578,11524,4136,2871,3636,Tag0,unknown
1545003852653,0,64,1.40625E-5,61,53,42,15454,14384,6867,2578,11524,4136,2871,3636,Tag0,unknown
1545003852657,0,54,1.1865234375000001E-5,61,53,42,15454,14384,6867,2578,11524,4136,2871,3636,Tag0,unknown
1545003852658,0,42,9.228515625000002E-6,61,53,42,15454,14384,6867,2578,11524,4136,2871,3636,Tag0,unknown
1545003852685,0,38,8.349609375E-6,61,53,42,15454,14384,6867,2578,11524,4136,2871,3636,Tag0,unknown
1545003852704,0,49,1.07666015625E-5,61,53,42,15454,14384,6867,2578,11524,4136,2871,3636,Tag0,unknown
1545003852705,0,59,1.29638671875E-5,61,53,42,15454,14384,6867,2578,11524,4136,2871,3636,Tag0,unknown
1545003852705,0,65,1.42822265625E-5,61,53,42,15454,14384,6867,2578,11524,4136,2871,3636,Tag0,unknown
1545003852705,0,59,1.29638671875E-5,61,53,42,15454,14384,6867,2578,11524,4136,2871,3636,Tag0,unknown
1545003852705,0,52,1.142578125E-5,61,53,42,15454,14384,6867,2578,11524,4136,2871,3636,Tag0,unknown
1545003852705,0,41,9.008789062499999E-6,61,53,42,15454,14384,6867,2578,11524,4136,2871,3636,Tag0,unknown
1545003852706,0,34,7.4707031250000005E-6,61,53,42,15454,14384,6867,2578,11524,4136,2871,3636,Tag0,unknown
1545003852706,0,39,8.5693359375E-6,61,53,42,15454,14384,6867,2578,11524,4136,2871,3636,Tag0,unknown
1545003852706,0,49,1.07666015625E-5,61,53,42,15454,14384,6867,2578,11524,4136,2871,3636,Tag0,unknown
1545003852706,0,52,1.142578125E-5,61,53,42,15454,14384,6867,2578,11524,4136,2871,3636,Tag0,unknown
1545003852707,0,49,1.07666015625E-5,61,53,42,15454,14384,6867,2578,11524,4136,2871,3636,Tag0,unknown
1545003852707,0,35,7.6904296875E-6,61,53,42,15454,14384,6867,2578,11524,4136,2871,3636,Tag0,unknown
1545003852707,0,26,5.712890625E-6,61,53,42,15454,14384,6867,2578,11524,4136,2871,3636,Tag0,unknown
1545003852707,0,25,5.4931640625E-6,61,53,42,15454,14384,6867,2578,11524,4136,2871,3636,Tag0,unknown
1545003852707,0,23,5.0537109375E-6,61,53,42,15454,14384,6867,2578,11524,4136,2871,3636,Tag0,unknown
1545003852707,0,21,4.614257812500001E-6,61,53,42,15454,14384,6867,2578,11524,4136,2871,3636,Tag0,unknown
1545003852708,0,25,5.4931640625E-6,61,53,42,15454,14384,6867,2578,11524,4136,2871,3636,Tag0,unknown
1545003852708,0,27,5.9326171875000005E-6,61,53,42,15454,14384,6867,2578,11524,4136,2871,3636,Tag0,unknown
1545003852708,0,27,5.9326171875000005E-6,61,53,42,15454,14384,6867,2578,11524,4136,2871,3636,Tag0,unknown
1545003852708,0,21,4.614257812500001E-6,61,53,42,15454,14384,6867,2578,11524,4136,2871,3636,Tag0,unknown
1545003852708,0,23,5.0537109375E-6,61,53,42,15454,14384,6867,2578,11524,4136,2871,3636,Tag0,unknown
1545003852709,0,35,7.6904296875E-6,61,53,42,15454,14384,6867,2578,11524,4136,2871,3636,Tag0,unknown
1545003852709,0,48,1.0546875E-5,61,53,42,15454,14384,6867,2578,11524,4136,2871,3636,Tag0,unknown
1545003852709,0,42,9.228515625000002E-6,61,53,42,15454,14384,6867,2578,11524,4136,2871,3636,Tag0,unknown
1545003852709,0,43,9.448242187500001E-6,61,53,42,15454,14384,6867,2578,11524,4136,2871,3636,Tag0,unknown
1545003852720,0,56,1.23046875E-5,61,53,42,15454,14384,6867,2578,11524,4136,2871,3636,Tag0,unknown
1545003852720,0,65,1.42822265625E-5,61,53,42,15454,14384,6867,2578,11524,4136,2871,3636,Tag0,unknown
1545003852721,0,65,1.42822265625E-5,61,53,42,15454,14384,6867,2578,11524,4136,2871,3636,Tag0,unknown
1545003852721,0,51,1.1206054687499999E-5,61,53,42,15454,14384,6867,2578,11524,4136,2871,3636,Tag0,unknown
1545003852721,0,52,1.142578125E-5,61,53,42,15454,14384,6867,2578,11524,4136,2871,3636,Tag0,unknown
1545003852751,0,61,1.34033203125E-5,61,53,42,15454,14384,6867,2578,11524,4136,2871,3636,Tag0,unknown
1545003852751,0,67,1.4721679687500002E-5,61,53,42,15454,14384,6867,2578,11524,4136,2871,3636,Tag0,unknown
1545003852751,0,68,1.4941406250000001E-5,61,53,42,15454,14384,6867,2578,11524,4136,2871,3636,Tag0,unknown
1545003852751,0,73,1.6040039062500002E-5,61,53,42,15454,14384,6867,2578,11524,4136,2871,3636,Tag0,unknown
1545003852769,0,73,1.6040039062500002E-5,61,53,42,15454,14384,6867,2578,11524,4136,2871,3636,Tag0,unknown
1545003852769,0,71,1.56005859375E-5,61,53,42,15454,14384,6867,2578,11524,4136,2871,3636,Tag0,unknown
1545003852770,0,57,1.2524414062500001E-5,61,53,42,15454,14384,6867,2578,11524,4136,2871,3636,Tag0,unknown
1545003852770,0,52,1.142578125E-5,61,53,42,15454,14384,6867,2578,11524,4136,2871,3636,Tag0,unknown
1545003852770,0,54,1.1865234375000001E-5,61,53,42,15454,14384,6867,2578,11524,4136,2871,3636,Tag0,unknown
1545003852770,0,69,1.51611328125E-5,61,53,42,15454,14384,6867,2578,11524,4136,2871,3636,Tag0,unknown
1545003852770,0,72,1.58203125E-5,61,53,42,15454,14384,6867,2578,11524,4136,2871,3636,Tag0,unknown
1545003852771,0,57,1.2524414062500001E-5,61,53,42,15454,14384,6867,2578,11524,4136,2871,3636,Tag0,unknown
1545003852771,0,45,9.8876953125E-6,61,53,42,15454,14384,6867,2578,11524,4136,2871,3636,Tag0,unknown
1545003852771,0,41,9.008789062499999E-6,61,53,42,15454,14384,6867,2578,11524,4136,2871,3636,Tag0,unknown
1545003852771,0,42,9.228515625000002E-6,61,53,42,15454,14384,6867,2578,11524,4136,2871,3636,Tag0,unknown
1545003852771,0,42,9.228515625000002E-6,61,53,42,15454,14384,6867,2578,11524,4136,2871,3636,Tag0,unknown
1545003852772,0,40,8.7890625E-6,61,53,42,15454,14384,6867,2578,11524,4136,2871,3636,Tag0,unknown
1545003852772,0,40,8.7890625E-6,61,53,42,15454,14384,6867,2578,11524,4136,2871,3636,Tag0,unknown
1545003852772,0,35,7.6904296875E-6,61,53,42,15454,14384,6867,2578,11524,4136,2871,3636,Tag0,unknown
1545003852772,0,26,5.712890625E-6,61,53,42,15454,14384,6867,2578,11524,4136,2871,3636,Tag0,unknown
1545003852772,0,25,5.4931640625E-6,61,53,42,15454,14384,6867,2578,11524,4136,2871,3636,Tag0,unknown
1545003852773,0,29,6.3720703125E-6,61,53,42,15454,14384,6867,2578,11524,4136,2871,3636,Tag0,unknown
1545003852773,0,26,5.712890625E-6,61,53,42,15454,14384,6867,2578,11524,4136,2871,3636,Tag0,unknown
1545003852773,0,28,6.15234375E-6,61,53,42,15454,14384,6867,2578,11524,4136,2871,3636,Tag0,unknown
1545003852774,0,33,7.2509765625E-6,61,53,42,15454,14384,6867,2578,11524,4136,2871,3636,Tag0,unknown
1545003852774,0,27,5.9326171875000005E-6,61,53,42,15454,14384,6867,2578,11524,4136,2871,3636,Tag0,unknown
1545003852774,0,24,5.2734375E-6,61,53,42,15454,14384,6867,2578,11524,4136,2871,3636,Tag0,unknown
1545003852785,0,43,9.448242187500001E-6,61,53,42,15454,14384,6867,2578,11524,4136,2871,3636,Tag0,unknown
1545003852786,0,65,1.42822265625E-5,61,53,42,15454,14384,6867,2578,11524,4136,2871,3636,Tag0,unknown
1545003852786,0,59,1.29638671875E-5,61,53,42,15454,14384,6867,2578,11524,4136,2871,3636,Tag0,unknown
1545003852806,0,55,1.20849609375E-5,61,53,42,15454,14384,6867,2578,11524,4136,2871,3636,Tag0,unknown
1545003852823,0,64,1.40625E-5,61,53,42,15454,14384,6867,2578,11524,4136,2871,3636,Tag0,unknown
1545003852823,0,67,1.4721679687500002E-5,61,53,42,15454,14384,6867,2578,11524,4136,2871,3636,Tag0,unknown
1545003852824,0,54,1.1865234375000001E-5,61,53,42,15454,14384,6867,2578,11524,4136,2871,3636,Tag0,unknown
1545003852825,0,40,8.7890625E-6,61,53,42,15454,14384,6867,2578,11524,4136,2871,3636,Tag0,unknown
1545003852825,0,33,7.2509765625E-6,61,53,42,15454,14384,6867,2578,11524,4136,2871,3636,Tag0,unknown
1545003852826,0,35,7.6904296875E-6,61,53,42,15454,14384,6867,2578,11524,4136,2871,3636,Tag0,unknown
1545003852826,0,41,9.008789062499999E-6,61,53,42,15454,14384,6867,2578,11524,4136,2871,3636,Tag0,unknown
1545003852827,0,37,8.1298828125E-6,61,53,42,15454,14384,6867,2578,11524,4136,2871,3636,Tag0,unknown
1545003852827,0,23,5.0537109375E-6,61,53,42,15454,14384,6867,2578,11524,4136,2871,3636,Tag0,unknown
1545003852827,0,21,4.614257812500001E-6,61,53,42,15454,14384,6867,2578,11524,4136,2871,3636,Tag0,unknown
1545003852827,0,25,5.4931640625E-6,61,53,42,15454,14384,6867,2578,11524,4136,2871,3636,Tag0,unknown
1545003852828,0,23,5.0537109375E-6,61,53,42,15454,14384,6867,2578,11524,4136,2871,3636,Tag0,unknown
1545003852828,0,17,3.7353515625000003E-6,61,53,42,15454,14384,6867,2578,11524,4136,2871,3636,Tag0,unknown
1545003852828,0,11,2.4169921875E-6,61,53,42,15454,14384,6867,2578,11524,4136,2871,3636,Tag0,unknown
1545003852828,0,21,4.614257812500001E-6,61,53,42,15454,14384,6867,2578,11524,4136,2871,3636,Tag0,unknown
1545003852829,0,24,5.2734375E-6,61,53,42,15454,14384,6867,2578,11524,4136,2871,3636,Tag0,unknown
1545003852829,0,25,5.4931640625E-6,61,53,42,15454,14384,6867,2578,11524,4136,2871,3636,Tag0,unknown
1545003852829,0,26,5.712890625E-6,61,53,42,15454,14384,6867,2578,11524,4136,2871,3636,Tag0,unknown
1545003852829,0,20,4.39453125E-6,61,53,42,15454,14384,6867,2578,11524,4136,2871,3636,Tag0,unknown
1545003852830,0,12,2.63671875E-6,61,53,42,15454,14384,6867,2578,11524,4136,2871,3636,Tag0,unknown
1545003852830,0,11,2.4169921875E-6,61,53,42,15454,14384,6867,2578,11524,4136,2871,3636,Tag0,unknown
1545003852830,0,19,4.1748046875E-6,61,53,42,15454,14384,6867,2578,11524,4136,2871,3636,Tag0,unknown
1545003852834,0,21,4.614257812500001E-6,61,53,42,15454,14384,6867,2578,11524,4136,2871,3636,Tag0,unknown
1545003852835,0,19,4.1748046875E-6,61,53,42,15454,14384,6867,2578,11524,4136,2871,3636,Tag0,unknown
1545003852835,0,21,4.614257812500001E-6,61,53,42,15454,14384,6867,2578,11524,4136,2871,3636,Tag0,unknown
1545003852835,0,37,8.1298828125E-6,61,53,42,15454,14384,6867,2578,11524,4136,2871,3636,Tag0,unknown
1545003852835,0,59,1.29638671875E-5,61,53,42,15454,14384,6867,2578,11524,4136,2871,3636,Tag0,unknown
1545003852835,0,76,1.669921875E-5,61,53,42,15454,14384,6867,2578,11524,4136,2871,3636,Tag0,unknown
1545003852836,0,82,1.8017578124999998E-5,61,53,42,15454,14384,6867,2578,11524,4136,2871,3636,Tag0,unknown
1545003852836,0,82,1.8017578124999998E-5,61,53,42,15454,14384,6867,2578,11524,4136,2871,3636,Tag0,unknown
1545003852877,0,76,1.669921875E-5,61,53,42,15454,14384,6867,2578,11524,4136,2871,3636,Tag0,unknown
1545003852878,0,69,1.51611328125E-5,61,53,42,15454,14384,6867,2578,11524,4136,2871,3636,Tag0,unknown
1545003852878,0,68,1.4941406250000001E-5,61,53,42,15454,14384,6867,2578,11524,4136,2871,3636,Tag0,unknown
1545003852878,0,71,1.56005859375E-5,61,53,42,15454,14384,6867,2578,11524,4136,2871,3636,Tag0,unknown
1545003852879,0,81,1.77978515625E-5,61,53,42,15454,14384,6867,2578,11524,4136,2871,3636,Tag0,unknown
1545003852879,0,82,1.8017578124999998E-5,61,53,42,15454,14384,6867,2578,11524,4136,2871,3636,Tag0,unknown
1545003852879,0,71,1.56005859375E-5,61,53,42,15454,14384,6867,2578,11524,4136,2871,3636,Tag0,unknown
1545003852879,0,75,1.64794921875E-5,61,53,42,15454,14384,6867,2578,11524,4136,2871,3636,Tag0,unknown
1545003852879,0,85,1.86767578125E-5,61,53,42,15454,14384,6867,2578,11524,4136,2871,3636,Tag0,unknown
1545003852880,0,90,1.9775390625E-5,61,53,42,15454,14384,6867,2578,11524,4136,2871,3636,Tag0,unknown
1545003852880,0,82,1.8017578124999998E-5,61,53,42,15454,14384,6867,2578,11524,4136,2871,3636,Tag0,unknown
1545003852880,0,55,1.20849609375E-5,61,53,42,15454,14384,6867,2578,11524,4136,2871,3636,Tag0,unknown
1545003852880,0,26,5.712890625E-6,61,53,42,15454,14384,6867,2578,11524,4136,2871,3636,Tag0,unknown
1545003852880,0,16,3.515625E-6,61,53,42,15454,14384,6867,2578,11524,4136,2871,3636,Tag0,unknown
1545003852880,0,24,5.2734375E-6,61,53,42,15454,14384,6867,2578,11524,4136,2871,3636,Tag0,unknown
1545003852881,0,28,6.15234375E-6,61,53,42,15454,14384,6867,2578,11524,4136,2871,3636,Tag0,unknown
1545003852881,0,24,5.2734375E-6,61,53,42,15454,14384,6867,2578,11524,4136,2871,3636,Tag0,unknown
1545003852881,0,27,5.9326171875000005E-6,61,53,42,15454,14384,6867,2578,11524,4136,2871,3636,Tag0,unknown
1545003852881,0,34,7.4707031250000005E-6,61,53,42,15454,14384,6867,2578,11524,4136,2871,3636,Tag0,unknown
1545003852881,0,35,7.6904296875E-6,61,53,42,15454,14384,6867,2578,11524,4136,2871,3636,Tag0,unknown
1545003852882,0,35,7.6904296875E-6,61,53,42,15454,14384,6867,2578,11524,4136,2871,3636,Tag0,unknown
1545003852882,0,36,7.91015625E-6,61,53,42,15454,14384,6867,2578,11524,4136,2871,3636,Tag0,unknown
1545003852887,0,33,7.2509765625E-6,61,53,42,15454,14384,6867,2578,11524,4136,2871,3636,Tag0,unknown
1545003852887,0,24,5.2734375E-6,61,53,42,15454,14384,6867,2578,11524,4136,2871,3636,Tag0,unknown
1545003852887,0,36,7.91015625E-6,61,53,42,15454,14384,6867,2578,11524,4136,2871,3636,Tag0,unknown
1545003852938,0,45,9.8876953125E-6,61,53,42,15454,14384,6867,2578,11524,4136,2871,3636,Tag0,unknown
1545003852954,0,42,9.228515625000002E-6,61,53,42,15454,14384,6867,2578,11524,4136,2871,3636,Tag0,unknown
1545003852955,0,37,8.1298828125E-6,61,53,42,15454,14384,6867,2578,11524,4136,2871,3636,Tag0,unknown
1545003852956,0,27,5.9326171875000005E-6,61,53,42,15454,14384,6867,2578,11524,4136,2871,3636,Tag0,unknown
1545003852957,0,27,5.9326171875000005E-6,61,53,42,15454,14384,6867,2578,11524,4136,2871,3636,Tag0,unknown
1545003852957,0,32,7.03125E-6,61,53,42,15454,14384,6867,2578,11524,4136,2871,3636,Tag0,unknown
1545003852958,0,33,7.2509765625E-6,61,53,42,15454,14384,6867,2578,11524,4136,2871,3636,Tag0,unknown
1545003852959,0,36,7.91015625E-6,61,53,42,15454,14384,6867,2578,11524,4136,2871,3636,Tag0,unknown
1545003852960,0,34,7.4707031250000005E-6,61,53,42,15454,14384,6867,2578,11524,4136,2871,3636,Tag0,unknown
1545003852960,0,34,7.4707031250000005E-6,61,53,42,15454,14384,6867,2578,11524,4136,2871,3636,Tag0,unknown
1545003852961,0,39,8.5693359375E-6,61,53,42,15454,14384,6867,2578,11524,4136,2871,3636,Tag0,unknown
1545003852961,0,37,8.1298828125E-6,61,53,42,15454,14384,6867,2578,11524,4136,2871,3636,Tag0,unknown
1545003852962,0,29,6.3720703125E-6,61,53,42,15454,14384,6867,2578,11524,4136,2871,3636,Tag0,unknown
1545003852962,0,33,7.2509765625E-6,61,53,42,15454,14384,6867,2578,11524,4136,2871,3636,Tag0,unknown
1545003852962,0,26,5.712890625E-6,61,53,42,15454,14384,6867,2578,11524,4136,2871,3636,Tag0,unknown
1545003852963,0,28,6.15234375E-6,61,53,42,15454,14384,6867,2578,11524,4136,2871,3636,Tag0,unknown
1545003852963,0,39,8.5693359375E-6,61,53,42,15454,14384,6867,2578,11524,4136,2871,3636,Tag0,unknown
1545003852963,0,40,8.7890625E-6,61,53,42,15454,14384,6867,2578,11524,4136,2871,3636,Tag0,unknown
1545003852963,0,29,6.3720703125E-6,61,53,42,15454,14384,6867,2578,11524,4136,2871,3636,Tag0,unknown
1545003852963,0,11,2.4169921875E-6,61,53,42,15454,14384,6867,2578,11524,4136,2871,3636,Tag0,unknown
1545003852964,0,-259,-5.69091796875E-5,61,53,42,15454,14384,6867,2578,11524,4136,2871,3636,Tag0,unknown
1545003852964,0,-259,-5.69091796875E-5,61,53,42,15454,14384,6867,2578,11524,4136,2871,3636,Tag0,unknown
1545003852964,0,4,8.7890625E-7,61,53,42,15454,14384,6867,2578,11524,4136,2871,3636,Tag0,unknown
1545003852964,0,18,3.955078125E-6,61,53,42,15454,14384,6867,2578,11524,4136,2871,3636,Tag0,unknown
1545003852964,0,23,5.0537109375E-6,61,53,42,15454,14384,6867,2578,11524,4136,2871,3636,Tag0,unknown
1545003852965,0,25,5.4931640625E-6,61,53,42,15454,14384,6867,2578,11524,4136,2871,3636,Tag0,unknown
1545003852965,0,28,6.15234375E-6,61,53,42,15454,14384,6867,2578,11524,4136,2871,3636,Tag0,unknown
1545003852965,0,22,4.833984375E-6,61,53,42,15454,14384,6867,2578,11524,4136,2871,3636,Tag0,unknown
1545003852966,0,17,3.7353515625000003E-6,61,53,42,15454,14384,6867,2578,11524,4136,2871,3636,Tag0,unknown
1545003852966,0,16,3.515625E-6,61,53,42,15454,14384,6867,2578,11524,4136,2871,3636,Tag0,unknown
1545003852966,0,18,3.955078125E-6,61,53,42,15454,14384,6867,2578,11524,4136,2871,3636,Tag0,unknown
1545003852966,0,23,5.0537109375E-6,61,53,42,15454,14384,6867,2578,11524,4136,2871,3636,Tag0,unknown
1545003852966,0,28,6.15234375E-6,61,53,42,15454,14384,6867,2578,11524,4136,2871,3636,Tag0,unknown
1545003852967,0,29,6.3720703125E-6,61,53,42,15454,14384,6867,2578,11524,4136,2871,3636,Tag0,unknown
1545003852967,0,27,5.9326171875000005E-6,61,53,42,15454,14384,6867,2578,11524,4136,2871,3636,Tag0,unknown
1545003852967,0,26,5.712890625E-6,61,53,42,15454,14384,6867,2578,11524,4136,2871,3636,Tag0,unknown
1545003852989,0,36,7.91015625E-6,61,53,42,15454,14384,6867,2578,11524,4136,2871,3636,Tag0,unknown
1545003852990,0,54,1.1865234375000001E-5,61,53,42,15454,14384,6867,2578,11524,4136,2871,3636,Tag0,unknown
1545003852990,0,71,1.56005859375E-5,61,53,42,15454,14384,6867,2578,11524,4136,2871,3636,Tag0,unknown
1545003852991,0,82,1.8017578124999998E-5,61,53,42,15454,14384,6867,2578,11524,4136,2871,3636,Tag0,unknown
1545003853002,0,83,1.82373046875E-5,61,53,42,15454,14384,6867,2578,11524,4136,2871,3636,Tag0,unknown
1545003853002,0,80,1.7578125E-5,61,53,42,15454,14384,6867,2578,11524,4136,2871,3636,Tag0,unknown
1545003853002,0,61,1.34033203125E-5,61,53,42,15454,14384,6867,2578,11524,4136,2871,3636,Tag0,unknown
1545003853003,0,56,1.23046875E-5,61,53,42,15454,14384,6867,2578,11524,4136,2871,3636,Tag0,unknown
1545003853003,0,55,1.20849609375E-5,61,53,42,15454,14384,6867,2578,11524,4136,2871,3636,Tag0,unknown
1545003853003,0,53,1.1645507812500002E-5,61,53,42,15454,14384,6867,2578,11524,4136,2871,3636,Tag0,unknown
1545003853003,0,54,1.1865234375000001E-5,61,53,42,15454,14384,6867,2578,11524,4136,2871,3636,Tag0,unknown
1545003853003,0,54,1.1865234375000001E-5,61,53,42,15454,14384,6867,2578,11524,4136,2871,3636,Tag0,unknown
1545003853004,0,49,1.07666015625E-5,61,53,42,15454,14384,6867,2578,11524,4136,2871,3636,Tag0,unknown
1545003853004,0,49,1.07666015625E-5,61,53,42,15454,14384,6867,2578,11524,4136,2871,3636,Tag0,unknown
1545003853004,0,48,1.0546875E-5,61,53,42,15454,14384,6867,2578,11524,4136,2871,3636,Tag0,unknown
1545003853004,0,56,1.23046875E-5,61,53,42,15454,14384,6867,2578,11524,4136,2871,3636,Tag0,unknown
1545003853004,0,56,1.23046875E-5,61,53,42,15454,14384,6867,2578,11524,4136,2871,3636,Tag0,unknown
1545003853005,0,45,9.8876953125E-6,61,53,42,15454,14384,6867,2578,11524,4136,2871,3636,Tag0,unknown
1545003853005,0,38,8.349609375E-6,61,53,42,15454,14384,6867,2578,11524,4136,2871,3636,Tag0,unknown
1545003853005,0,29,6.3720703125E-6,61,53,42,15454,14384,6867,2578,11524,4136,2871,3636,Tag0,unknown
1545003853005,0,32,7.03125E-6,61,53,42,15454,14384,6867,2578,11524,4136,2871,3636,Tag0,unknown
1545003853005,0,25,5.4931640625E-6,61,53,42,15454,14384,6867,2578,11524,4136,2871,3636,Tag0,unknown
1545003853005,0,21,4.614257812500001E-6,61,53,42,15454,14384,6867,2578,11524,4136,2871,3636,Tag0,unknown
1545003853006,0,35,7.6904296875E-6,61,53,42,15454,14384,6867,2578,11524,4136,2871,3636,Tag0,unknown
1545003853006,0,49,1.07666015625E-5,61,53,42,15454,14384,6867,2578,11524,4136,2871,3636,Tag0,unknown
1545003853020,0,56,1.23046875E-5,61,53,42,15454,14384,6867,2578,11524,4136,2871,3636,Tag0,unknown
1545003853020,0,64,1.40625E-5,61,53,42,15454,14384,6867,2578,11524,4136,2871,3636,Tag0,unknown
1545003853020,0,72,1.58203125E-5,61,53,42,15454,14384,6867,2578,11524,4136,2871,3636,Tag0,unknown
1545003853020,0,77,1.69189453125E-5,61,53,42,15454,14384,6867,2578,11524,4136,2871,3636,Tag0,unknown
1545003853020,0,76,1.669921875E-5,61,53,42,15454,14384,6867,2578,11524,4136,2871,3636,Tag0,unknown
1545003853021,0,81,1.77978515625E-5,61,53,42,15454,14384,6867,2578,11524,4136,2871,3636,Tag0,unknown
1545003853052,0,84,1.8457031250000004E-5,61,53,42,15454,14384,6867,2578,11524,4136,2871,3636,Tag0,unknown
1545003853071,0,92,2.021484375E-5,61,53,42,15454,14384,6867,2578,11524,4136,2871,3636,Tag0,unknown
1545003853073,0,92,2.021484375E-5,61,53,42,15454,14384,6867,2578,11524,4136,2871,3636,Tag0,unknown
1545003853075,0,92,2.021484375E-5,61,53,42,15454,14384,6867,2578,11524,4136,2871,3636,Tag0,unknown
1545003853075,0,92,2.021484375E-5,61,53,42,15454,14384,6867,2578,11524,4136,2871,3636,Tag0,unknown
1545003853076,0,75,1.64794921875E-5,61,53,42,15454,14384,6867,2578,11524,4136,2871,3636,Tag0,unknown
1545003853076,0,65,1.42822265625E-5,61,53,42,15454,14384,6867,2578,11524,4136,2871,3636,Tag0,unknown
1545003853077,0,64,1.40625E-5,61,53,42,15454,14384,6867,2578,11524,4136,2871,3636,Tag0,unknown
1545003853077,0,64,1.40625E-5,61,53,42,15454,14384,6867,2578,11524,4136,2871,3636,Tag0,unknown
1545003853077,0,71,1.56005859375E-5,61,53,42,15454,14384,6867,2578,11524,4136,2871,3636,Tag0,unknown
1545003853077,0,75,1.64794921875E-5,61,53,42,15454,14384,6867,2578,11524,4136,2871,3636,Tag0,unknown
1545003853077,0,64,1.40625E-5,61,53,42,15454,14384,6867,2578,11524,4136,2871,3636,Tag0,unknown
1545003853078,0,41,9.008789062499999E-6,61,53,42,15454,14384,6867,2578,11524,4136,2871,3636,Tag0,unknown
1545003853078,0,18,3.955078125E-6,61,53,42,15454,14384,6867,2578,11524,4136,2871,3636,Tag0,unknown
1545003853078,0,9,1.9775390625E-6,61,53,42,15454,14384,6867,2578,11524,4136,2871,3636,Tag0,unknown
1545003853078,0,23,5.0537109375E-6,61,53,42,15454,14384,6867,2578,11524,4136,2871,3636,Tag0,unknown
1545003853079,0,35,7.6904296875E-6,61,53,42,15454,14384,6867,2578,11524,4136,2871,3636,Tag0,unknown
1545003853079,0,37,8.1298828125E-6,61,53,42,15454,14384,6867,2578,11524,4136,2871,3636,Tag0,unknown
1545003853079,0,27,5.9326171875000005E-6,61,53,42,15454,14384,6867,2578,11524,4136,2871,3636,Tag0,unknown
1545003853079,0,9,1.9775390625E-6,61,53,42,15454,14384,6867,2578,11524,4136,2871,3636,Tag0,unknown
1545003853079,0,3,6.591796875E-7,61,53,42,15454,14384,6867,2578,11524,4136,2871,3636,Tag0,unknown
1545003853080,0,12,2.63671875E-6,61,53,42,15454,14384,6867,2578,11524,4136,2871,3636,Tag0,unknown
1545003853080,0,35,7.6904296875E-6,61,53,42,15454,14384,6867,2578,11524,4136,2871,3636,Tag0,unknown
1545003853080,0,51,1.1206054687499999E-5,61,53,42,15454,14384,6867,2578,11524,4136,2871,3636,Tag0,unknown
1545003853080,0,57,1.2524414062500001E-5,61,53,42,15454,14384,6867,2578,11524,4136,2871,3636,Tag0,unknown
1545003853080,0,60,1.318359375E-5,61,53,42,15454,14384,6867,2578,11524,4136,2871,3636,Tag0,unknown
1545003853081,0,57,1.2524414062500001E-5,61,53,42,15454,14384,6867,2578,11524,4136,2871,3636,Tag0,unknown
1545003853081,0,59,1.29638671875E-5,61,53,42,15454,14384,6867,2578,11524,4136,2871,3636,Tag0,unknown
1545003853082,0,66,1.4501953125E-5,61,53,42,15454,14384,6867,2578,11524,4136,2871,3636,Tag0,unknown
1545003853083,0,65,1.42822265625E-5,61,53,42,15454,14384,6867,2578,11524,4136,2871,3636,Tag0,unknown
1545003853087,0,67,1.4721679687500002E-5,61,53,42,15454,14384,6867,2578,11524,4136,2871,3636,Tag0,unknown
1545003853119,0,67,1.4721679687500002E-5,61,53,42,15454,14384,6867,2578,11524,4136,2871,3636,Tag0,unknown
1545003853119,0,74,1.6259765625E-5,61,53,42,15454,14384,6867,2578,11524,4136,2871,3636,Tag0,unknown
1545003853119,0,93,2.04345703125E-5,61,53,42,15454,14384,6867,2578,11524,4136,2871,3636,Tag0,unknown
1545003853119,0,118,2.5927734375E-5,61,53,42,15454,14384,6867,2578,11524,4136,2871,3636,Tag0,unknown
1545003853120,0,-127,-2.79052734375E-5,61,53,42,15454,14384,6867,2578,11524,4136,2871,3636,Tag0,unknown
1545003853120,0,112,2.4609375E-5,61,53,42,15454,14384,6867,2578,11524,4136,2871,3636,Tag0,unknown
1545003853120,0,92,2.021484375E-5,61,53,42,15454,14384,6867,2578,11524,4136,2871,3636,Tag0,unknown
1545003853120,0,90,1.9775390625E-5,61,53,42,15454,14384,6867,2578,11524,4136,2871,3636,Tag0,unknown
1545003853120,0,92,2.021484375E-5,61,53,42,15454,14384,6867,2578,11524,4136,2871,3636,Tag0,unknown
1545003853121,0,93,2.04345703125E-5,61,53,42,15454,14384,6867,2578,11524,4136,2871,3636,Tag0,unknown
1545003853121,0,87,1.91162109375E-5,61,53,42,15454,14384,6867,2578,11524,4136,2871,3636,Tag0,unknown
1545003853121,0,69,1.51611328125E-5,61,53,42,15454,14384,6867,2578,11524,4136,2871,3636,Tag0,unknown
1545003853121,0,48,1.0546875E-5,61,53,42,15454,14384,6867,2578,11524,4136,2871,3636,Tag0,unknown
1545003853121,0,23,5.0537109375E-6,61,53,42,15454,14384,6867,2578,11524,4136,2871,3636,Tag0,unknown
1545003853121,0,16,3.515625E-6,61,53,42,15454,14384,6867,2578,11524,4136,2871,3636,Tag0,unknown
1545003853122,0,20,4.39453125E-6,61,53,42,15454,14384,6867,2578,11524,4136,2871,3636,Tag0,unknown
1545003853122,0,25,5.4931640625E-6,61,53,42,15454,14384,6867,2578,11524,4136,2871,3636,Tag0,unknown
1545003853122,0,18,3.955078125E-6,61,53,42,15454,14384,6867,2578,11524,4136,2871,3636,Tag0,unknown
1545003853122,0,4,8.7890625E-7,61,53,42,15454,14384,6867,2578,11524,4136,2871,3636,Tag0,unknown
1545003853123,0,-259,-5.69091796875E-5,61,53,42,15454,14384,6867,2578,11524,4136,2871,3636,Tag0,unknown
1545003853135,0,-257,-5.64697265625E-5,61,53,42,15454,14384,6867,2578,11524,4136,2871,3636,Tag0,unknown
1545003853136,0,21,4.614257812500001E-6,61,53,42,15454,14384,6867,2578,11524,4136,2871,3636,Tag0,unknown
1545003853136,0,37,8.1298828125E-6,61,53,42,15454,14384,6867,2578,11524,4136,2871,3636,Tag0,unknown
1545003853136,0,41,9.008789062499999E-6,61,53,42,15454,14384,6867,2578,11524,4136,2871,3636,Tag0,unknown
1545003853137,0,39,8.5693359375E-6,61,53,42,15454,14384,6867,2578,11524,4136,2871,3636,Tag0,unknown
1545003853137,0,38,8.349609375E-6,61,53,42,15454,14384,6867,2578,11524,4136,2871,3636,Tag0,unknown
1545003853137,0,42,9.228515625000002E-6,61,53,42,15454,14384,6867,2578,11524,4136,2871,3636,Tag0,unknown
1545003853137,0,55,1.20849609375E-5,61,53,42,15454,14384,6867,2578,11524,4136,2871,3636,Tag0,unknown
1545003853138,0,70,1.5380859375E-5,61,53,42,15454,14384,6867,2578,11524,4136,2871,3636,Tag0,unknown
1545003853138,0,68,1.4941406250000001E-5,61,53,42,15454,14384,6867,2578,11524,4136,2871,3636,Tag0,unknown
1545003853138,0,50,1.0986328125E-5,61,53,42,15454,14384,6867,2578,11524,4136,2871,3636,Tag0,unknown
1545003853165,0,41,9.008789062499999E-6,61,53,42,15454,14384,6867,2578,11524,4136,2871,3636,Tag0,unknown
1545003853169,0,51,1.1206054687499999E-5,61,53,42,15454,14384,6867,2578,11524,4136,2871,3636,Tag0,unknown
1545003853200,0,70,1.5380859375E-5,61,53,42,15454,14384,6867,2578,11524,4136,2871,3636,Tag0,unknown
1545003853200,0,84,1.8457031250000004E-5,61,53,42,15454,14384,6867,2578,11524,4136,2871,3636,Tag0,unknown
1545003853200,0,87,1.91162109375E-5,61,53,42,15454,14384,6867,2578,11524,4136,2871,3636,Tag0,unknown
1545003853201,0,80,1.7578125E-5,61,53,42,15454,14384,6867,2578,11524,4136,2871,3636,Tag0,unknown
1545003853201,0,70,1.5380859375E-5,61,53,42,15454,14384,6867,2578,11524,4136,2871,3636,Tag0,unknown
1545003853201,0,68,1.4941406250000001E-5,61,53,42,15454,14384,6867,2578,11524,4136,2871,3636,Tag0,unknown
1545003853201,0,61,1.34033203125E-5,61,53,42,15454,14384,6867,2578,11524,4136,2871,3636,Tag0,unknown
1545003853201,0,64,1.40625E-5,61,53,42,15454,14384,6867,2578,11524,4136,2871,3636,Tag0,unknown
1545003853201,0,75,1.64794921875E-5,61,53,42,15454,14384,6867,2578,11524,4136,2871,3636,Tag0,unknown
1545003853202,0,77,1.69189453125E-5,61,53,42,15454,14384,6867,2578,11524,4136,2871,3636,Tag0,unknown
1545003853202,0,64,1.40625E-5,61,53,42,15454,14384,6867,2578,11524,4136,2871,3636,Tag0,unknown
1545003853202,0,48,1.0546875E-5,61,53,42,15454,14384,6867,2578,11524,4136,2871,3636,Tag0,unknown
1545003853202,0,33,7.2509765625E-6,61,53,42,15454,14384,6867,2578,11524,4136,2871,3636,Tag0,unknown
1545003853203,0,19,4.1748046875E-6,61,53,42,15454,14384,6867,2578,11524,4136,2871,3636,Tag0,unknown
1545003853203,0,11,2.4169921875E-6,61,53,42,15454,14384,6867,2578,11524,4136,2871,3636,Tag0,unknown
1545003853203,0,4,8.7890625E-7,61,53,42,15454,14384,6867,2578,11524,4136,2871,3636,Tag0,unknown
1545003853203,0,3,6.591796875E-7,61,53,42,15454,14384,6867,2578,11524,4136,2871,3636,Tag0,unknown
1545003853203,0,-263,-5.7788085937500005E-5,61,53,42,15454,14384,6867,2578,11524,4136,2871,3636,Tag0,unknown
1545003853203,0,-269,-5.9106445312499996E-5,61,53,42,15454,14384,6867,2578,11524,4136,2871,3636,Tag0,unknown
1545003853204,0,-261,-5.73486328125E-5,61,53,42,15454,14384,6867,2578,11524,4136,2871,3636,Tag0,unknown
1545003853204,0,8,1.7578125E-6,61,53,42,15454,14384,6867,2578,11524,4136,2871,3636,Tag0,unknown
1545003853204,0,26,5.712890625E-6,61,53,42,15454,14384,6867,2578,11524,4136,2871,3636,Tag0,unknown
1545003853204,0,35,7.6904296875E-6,61,53,42,15454,14384,6867,2578,11524,4136,2871,3636,Tag0,unknown
1545003853204,0,29,6.3720703125E-6,61,53,42,15454,14384,6867,2578,11524,4136,2871,3636,Tag0,unknown
1545003853205,0,35,7.6904296875E-6,61,53,42,15454,14384,6867,2578,11524,4136,2871,3636,Tag0,unknown
1545003853205,0,53,1.1645507812500002E-5,61,53,42,15454,14384,6867,2578,11524,4136,2871,3636,Tag0,unknown
1545003853205,0,74,1.6259765625E-5,61,53,42,15454,14384,6867,2578,11524,4136,2871,3636,Tag0,unknown
1545003853205,0,91,1.99951171875E-5,61,53,42,15454,14384,6867,2578,11524,4136,2871,3636,Tag0,unknown
1545003853231,0,103,2.26318359375E-5,61,53,42,15454,14384,6867,2578,11524,4136,2871,3636,Tag0,unknown
1545003853231,0,108,2.3730468750000002E-5,61,53,42,15454,14384,6867,2578,11524,4136,2871,3636,Tag0,unknown
1545003853237,0,119,2.6147460937500004E-5,61,53,42,15454,14384,6867,2578,11524,4136,2871,3636,Tag0,unknown
1545003853251,0,123,2.70263671875E-5,61,53,42,15454,14384,6867,2578,11524,4136,2871,3636,Tag0,unknown
1545003853252,0,119,2.6147460937500004E-5,61,53,42,15454,14384,6867,2578,11524,4136,2871,3636,Tag0,unknown
1545003853252,0,107,2.35107421875E-5,61,53,42,15454,14384,6867,2578,11524,4136,2871,3636,Tag0,unknown
1545003853252,0,100,2.197265625E-5,61,53,42,15454,14384,6867,2578,11524,4136,2871,3636,Tag0,unknown
1545003853252,0,96,2.109375E-5,61,53,42,15454,14384,6867,2578,11524,4136,2871,3636,Tag0,unknown
1545003853253,0,87,1.91162109375E-5,61,53,42,15454,14384,6867,2578,11524,4136,2871,3636,Tag0,unknown
1545003853253,0,74,1.6259765625E-5,61,53,42,15454,14384,6867,2578,11524,4136,2871,3636,Tag0,unknown
1545003853253,0,65,1.42822265625E-5,61,53,42,15454,14384,6867,2578,11524,4136,2871,3636,Tag0,unknown
1545003853253,0,51,1.1206054687499999E-5,61,53,42,15454,14384,6867,2578,11524,4136,2871,3636,Tag0,unknown
1545003853253,0,48,1.0546875E-5,61,53,42,15454,14384,6867,2578,11524,4136,2871,3636,Tag0,unknown
1545003853254,0,54,1.1865234375000001E-5,61,53,42,15454,14384,6867,2578,11524,4136,2871,3636,Tag0,unknown
1545003853254,0,60,1.318359375E-5,61,53,42,15454,14384,6867,2578,11524,4136,2871,3636,Tag0,unknown
1545003853254,0,60,1.318359375E-5,61,53,42,15454,14384,6867,2578,11524,4136,2871,3636,Tag0,unknown
1545003853254,0,50,1.0986328125E-5,61,53,42,15454,14384,6867,2578,11524,4136,2871,3636,Tag0,unknown
1545003853254,0,36,7.91015625E-6,61,53,42,15454,14384,6867,2578,11524,4136,2871,3636,Tag0,unknown
1545003853255,0,23,5.0537109375E-6,61,53,42,15454,14384,6867,2578,11524,4136,2871,3636,Tag0,unknown
1545003853255,0,13,2.8564453125E-6,61,53,42,15454,14384,6867,2578,11524,4136,2871,3636,Tag0,unknown
1545003853255,0,8,1.7578125E-6,61,53,42,15454,14384,6867,2578,11524,4136,2871,3636,Tag0,unknown
1545003853256,0,13,2.8564453125E-6,61,53,42,15454,14384,6867,2578,11524,4136,2871,3636,Tag0,unknown
1545003853256,0,26,5.712890625E-6,61,53,42,15454,14384,6867,2578,11524,4136,2871,3636,Tag0,unknown
1545003853256,0,27,5.9326171875000005E-6,61,53,42,15454,14384,6867,2578,11524,4136,2871,3636,Tag0,unknown
1545003853256,0,19,4.1748046875E-6,61,53,42,15454,14384,6867,2578,11524,4136,2871,3636,Tag0,unknown
1545003853270,0,9,1.9775390625E-6,61,53,42,15454,14384,6867,2578,11524,4136,2871,3636,Tag0,unknown
1545003853270,0,8,1.7578125E-6,61,53,42,15454,14384,6867,2578,11524,4136,2871,3636,Tag0,unknown
1545003853270,0,16,3.515625E-6,61,53,42,15454,14384,6867,2578,11524,4136,2871,3636,Tag0,unknown
1545003853271,0,27,5.9326171875000005E-6,61,53,42,15454,14384,6867,2578,11524,4136,2871,3636,Tag0,unknown
1545003853271,0,33,7.2509765625E-6,61,53,42,15454,14384,6867,2578,11524,4136,2871,3636,Tag0,unknown
1545003853293,0,36,7.91015625E-6,61,53,42,15454,14384,6867,2578,11524,4136,2871,3636,Tag0,unknown
1545003853294,0,44,9.66796875E-6,61,53,42,15454,14384,6867,2578,11524,4136,2871,3636,Tag0,unknown
1545003853294,0,58,1.2744140625E-5,61,53,42,15454,14384,6867,2578,11524,4136,2871,3636,Tag0,unknown
1545003853306,0,67,1.4721679687500002E-5,61,53,42,15454,14384,6867,2578,11524,4136,2871,3636,Tag0,unknown
1545003853306,0,69,1.51611328125E-5,61,53,42,15454,14384,6867,2578,11524,4136,2871,3636,Tag0,unknown
1545003853307,0,74,1.6259765625E-5,61,53,42,15454,14384,6867,2578,11524,4136,2871,3636,Tag0,unknown
1545003853307,0,84,1.8457031250000004E-5,61,53,42,15454,14384,6867,2578,11524,4136,2871,3636,Tag0,unknown
1545003853307,0,80,1.7578125E-5,61,53,42,15454,14384,6867,2578,11524,4136,2871,3636,Tag0,unknown
1545003853307,0,75,1.64794921875E-5,61,53,42,15454,14384,6867,2578,11524,4136,2871,3636,Tag0,unknown
1545003853307,0,71,1.56005859375E-5,61,53,42,15454,14384,6867,2578,11524,4136,2871,3636,Tag0,unknown
1545003853308,0,55,1.20849609375E-5,61,53,42,15454,14384,6867,2578,11524,4136,2871,3636,Tag0,unknown
1545003853308,0,34,7.4707031250000005E-6,61,53,42,15454,14384,6867,2578,11524,4136,2871,3636,Tag0,unknown
1545003853308,0,23,5.0537109375E-6,61,53,42,15454,14384,6867,2578,11524,4136,2871,3636,Tag0,unknown
1545003853308,0,22,4.833984375E-6,61,53,42,15454,14384,6867,2578,11524,4136,2871,3636,Tag0,unknown
1545003853309,0,19,4.1748046875E-6,61,53,42,15454,14384,6867,2578,11524,4136,2871,3636,Tag0,unknown
1545003853309,0,19,4.1748046875E-6,61,53,42,15454,14384,6867,2578,11524,4136,2871,3636,Tag0,unknown
1545003853309,0,11,2.4169921875E-6,61,53,42,15454,14384,6867,2578,11524,4136,2871,3636,Tag0,unknown
1545003853309,0,3,6.591796875E-7,61,53,42,15454,14384,6867,2578,11524,4136,2871,3636,Tag0,unknown
1545003853309,0,4,8.7890625E-7,61,53,42,15454,14384,6867,2578,11524,4136,2871,3636,Tag0,unknown
1545003853346,0,16,3.515625E-6,61,53,42,15454,14384,6867,2578,11524,4136,2871,3636,Tag0,unknown
1545003853368,0,21,4.614257812500001E-6,61,53,42,15454,14384,6867,2578,11524,4136,2871,3636,Tag0,unknown
1545003853368,0,20,4.39453125E-6,61,53,42,15454,14384,6867,2578,11524,4136,2871,3636,Tag0,unknown
1545003853369,0,18,3.955078125E-6,61,53,42,15454,14384,6867,2578,11524,4136,2871,3636,Tag0,unknown
1545003853369,0,4,8.7890625E-7,61,53,42,15454,14384,6867,2578,11524,4136,2871,3636,Tag0,unknown
1545003853369,0,-258,-5.6689453125000004E-5,61,53,42,15454,14384,6867,2578,11524,4136,2871,3636,Tag0,unknown
1545003853369,0,5,1.0986328125E-6,61,53,42,15454,14384,6867,2578,11524,4136,2871,3636,Tag0,unknown
1545003853369,0,9,1.9775390625E-6,61,53,42,15454,14384,6867,2578,11524,4136,2871,3636,Tag0,unknown
1545003853370,0,20,4.39453125E-6,61,53,42,15454,14384,6867,2578,11524,4136,2871,3636,Tag0,unknown
1545003853370,0,35,7.6904296875E-6,61,53,42,15454,14384,6867,2578,11524,4136,2871,3636,Tag0,unknown
1545003853370,0,34,7.4707031250000005E-6,61,53,42,15454,14384,6867,2578,11524,4136,2871,3636,Tag0,unknown
1545003853370,0,18,3.955078125E-6,61,53,42,15454,14384,6867,2578,11524,4136,2871,3636,Tag0,unknown
1545003853370,0,3,6.591796875E-7,61,53,42,15454,14384,6867,2578,11524,4136,2871,3636,Tag0,unknown
1545003853371,0,4,8.7890625E-7,61,53,42,15454,14384,6867,2578,11524,4136,2871,3636,Tag0,unknown
1545003853371,0,11,2.4169921875E-6,61,53,42,15454,14384,6867,2578,11524,4136,2871,3636,Tag0,unknown
1545003853371,0,8,1.7578125E-6,61,53,42,15454,14384,6867,2578,11524,4136,2871,3636,Tag0,unknown
1545003853372,0,-257,-5.64697265625E-5,61,53,42,15454,14384,6867,2578,11524,4136,2871,3636,Tag0,unknown
1545003853372,0,-261,-5.73486328125E-5,61,53,42,15454,14384,6867,2578,11524,4136,2871,3636,Tag0,unknown
1545003853372,0,-262,-5.7568359375E-5,61,53,42,15454,14384,6867,2578,11524,4136,2871,3636,Tag0,unknown
1545003853372,0,-262,-5.7568359375E-5,61,53,42,15454,14384,6867,2578,11524,4136,2871,3636,Tag0,unknown
1545003853372,0,-261,-5.73486328125E-5,61,53,42,15454,14384,6867,2578,11524,4136,2871,3636,Tag0,unknown
1545003853373,0,-257,-5.64697265625E-5,61,53,42,15454,14384,6867,2578,11524,4136,2871,3636,Tag0,unknown
1545003853373,0,1,2.197265625E-7,61,53,42,15454,14384,6867,2578,11524,4136,2871,3636,Tag0,unknown
1545003853373,0,-263,-5.7788085937500005E-5,61,53,42,15454,14384,6867,2578,11524,4136,2871,3636,Tag0,unknown
1545003853373,0,-269,-5.9106445312499996E-5,61,53,42,15454,14384,6867,2578,11524,4136,2871,3636,Tag0,unknown
1545003853373,0,-263,-5.7788085937500005E-5,61,53,42,15454,14384,6867,2578,11524,4136,2871,3636,Tag0,unknown
1545003853373,0,7,1.5380859375E-6,61,53,42,15454,14384,6867,2578,11524,4136,2871,3636,Tag0,unknown
1545003853374,0,17,3.7353515625000003E-6,61,53,42,15454,14384,6867,2578,11524,4136,2871,3636,Tag0,unknown
1545003853374,0,19,4.1748046875E-6,61,53,42,15454,14384,6867,2578,11524,4136,2871,3636,Tag0,unknown
1545003853374,0,21,4.614257812500001E-6,61,53,42,15454,14384,6867,2578,11524,4136,2871,3636,Tag0,unknown
1545003853374,0,22,4.833984375E-6,61,53,42,15454,14384,6867,2578,11524,4136,2871,3636,Tag0,unknown
1545003853375,0,23,5.0537109375E-6,61,53,42,15454,14384,6867,2578,11524,4136,2871,3636,Tag0,unknown
1545003853375,0,18,3.955078125E-6,61,53,42,15454,14384,6867,2578,11524,4136,2871,3636,Tag0,unknown
1545003853375,0,16,3.515625E-6,61,53,42,15454,14384,6867,2578,11524,4136,2871,3636,Tag0,unknown
1545003853375,0,18,3.955078125E-6,61,53,42,15454,14384,6867,2578,11524,4136,2871,3636,Tag0,unknown
1545003853375,0,22,4.833984375E-6,61,53,42,15454,14384,6867,2578,11524,4136,2871,3636,Tag0,unknown
1545003853376,0,24,5.2734375E-6,61,53,42,15454,14384,6867,2578,11524,4136,2871,3636,Tag0,unknown
1545003853376,0,35,7.6904296875E-6,61,53,42,15454,14384,6867,2578,11524,4136,2871,3636,Tag0,unknown
1545003853376,0,51,1.1206054687499999E-5,61,53,42,15454,14384,6867,2578,11524,4136,2871,3636,Tag0,unknown
1545003853376,0,59,1.29638671875E-5,61,53,42,15454,14384,6867,2578,11524,4136,2871,3636,Tag0,unknown
1545003853385,0,64,1.40625E-5,61,53,42,15454,14384,6867,2578,11524,4136,2871,3636,Tag0,unknown
1545003853385,0,66,1.4501953125E-5,61,53,42,15454,14384,6867,2578,11524,4136,2871,3636,Tag0,unknown
1545003853385,0,66,1.4501953125E-5,61,53,42,15454,14384,6867,2578,11524,4136,2871,3636,Tag0,unknown
1545003853385,0,66,1.4501953125E-5,61,53,42,15454,14384,6867,2578,11524,4136,2871,3636,Tag0,unknown
1545003853420,0,67,1.4721679687500002E-5,61,53,42,15454,14384,6867,2578,11524,4136,2871,3636,Tag0,unknown
1545003853420,0,59,1.29638671875E-5,61,53,42,15454,14384,6867,2578,11524,4136,2871,3636,Tag0,unknown
1545003853421,0,60,1.318359375E-5,61,53,42,15454,14384,6867,2578,11524,4136,2871,3636,Tag0,unknown
1545003853421,0,75,1.64794921875E-5,61,53,42,15454,14384,6867,2578,11524,4136,2871,3636,Tag0,unknown
1545003853421,0,88,1.93359375E-5,61,53,42,15454,14384,6867,2578,11524,4136,2871,3636,Tag0,unknown
1545003853422,0,89,1.95556640625E-5,61,53,42,15454,14384,6867,2578,11524,4136,2871,3636,Tag0,unknown
1545003853422,0,87,1.91162109375E-5,61,53,42,15454,14384,6867,2578,11524,4136,2871,3636,Tag0,unknown
1545003853422,0,84,1.8457031250000004E-5,61,53,42,15454,14384,6867,2578,11524,4136,2871,3636,Tag0,unknown
1545003853422,0,73,1.6040039062500002E-5,61,53,42,15454,14384,6867,2578,11524,4136,2871,3636,Tag0,unknown
1545003853422,0,55,1.20849609375E-5,61,53,42,15454,14384,6867,2578,11524,4136,2871,3636,Tag0,unknown
1545003853423,0,29,6.3720703125E-6,61,53,42,15454,14384,6867,2578,11524,4136,2871,3636,Tag0,unknown
1545003853423,0,11,2.4169921875E-6,61,53,42,15454,14384,6867,2578,11524,4136,2871,3636,Tag0,unknown
1545003853423,0,9,1.9775390625E-6,61,53,42,15454,14384,6867,2578,11524,4136,2871,3636,Tag0,unknown
1545003853423,0,17,3.7353515625000003E-6,61,53,42,15454,14384,6867,2578,11524,4136,2871,3636,Tag0,unknown
1545003853423,0,26,5.712890625E-6,61,53,42,15454,14384,6867,2578,11524,4136,2871,3636,Tag0,unknown
1545003853424,0,38,8.349609375E-6,61,53,42,15454,14384,6867,2578,11524,4136,2871,3636,Tag0,unknown
1545003853424,0,44,9.66796875E-6,61,53,42,15454,14384,6867,2578,11524,4136,2871,3636,Tag0,unknown
1545003853424,0,51,1.1206054687499999E-5,61,53,42,15454,14384,6867,2578,11524,4136,2871,3636,Tag0,unknown
1545003853424,0,49,1.07666015625E-5,61,53,42,15454,14384,6867,2578,11524,4136,2871,3636,Tag0,unknown
1545003853425,0,50,1.0986328125E-5,61,53,42,15454,14384,6867,2578,11524,4136,2871,3636,Tag0,unknown
1545003853425,0,61,1.34033203125E-5,61,53,42,15454,14384,6867,2578,11524,4136,2871,3636,Tag0,unknown
1545003853425,0,65,1.42822265625E-5,61,53,42,15454,14384,6867,2578,11524,4136,2871,3636,Tag0,unknown
1545003853426,0,55,1.20849609375E-5,61,53,42,15454,14384,6867,2578,11524,4136,2871,3636,Tag0,unknown
1545003853436,0,58,1.2744140625E-5,61,53,42,15454,14384,6867,2578,11524,4136,2871,3636,Tag0,unknown
1545003853436,0,58,1.2744140625E-5,61,53,42,15454,14384,6867,2578,11524,4136,2871,3636,Tag0,unknown
1545003853437,0,60,1.318359375E-5,61,53,42,15454,14384,6867,2578,11524,4136,2871,3636,Tag0,unknown
1545003853437,0,72,1.58203125E-5,61,53,42,15454,14384,6867,2578,11524,4136,2871,3636,Tag0,unknown
1545003853438,0,87,1.91162109375E-5,61,53,42,15454,14384,6867,2578,11524,4136,2871,3636,Tag0,unknown
1545003853470,0,90,1.9775390625E-5,78,50,42,22612,5492,10409,4627,16750572,15612,3164,1059,Tag0,unknown
1545003853487,0,96,2.109375E-5,78,50,42,22612,5492,10409,4627,16750572,15612,3164,1059,Tag0,unknown
1545003853487,0,107,2.35107421875E-5,78,50,42,22612,5492,10409,4627,16750572,15612,3164,1059,Tag0,unknown
1545003853487,0,121,2.6586914062500003E-5,78,50,42,22612,5492,10409,4627,16750572,15612,3164,1059,Tag0,unknown
1545003853488,0,115,2.52685546875E-5,78,50,42,22612,5492,10409,4627,16750572,15612,3164,1059,Tag0,unknown
1545003853488,0,90,1.9775390625E-5,78,50,42,22612,5492,10409,4627,16750572,15612,3164,1059,Tag0,unknown
1545003853488,0,82,1.8017578124999998E-5,78,50,42,22612,5492,10409,4627,16750572,15612,3164,1059,Tag0,unknown
1545003853488,0,76,1.669921875E-5,78,50,42,22612,5492,10409,4627,16750572,15612,3164,1059,Tag0,unknown
1545003853489,0,83,1.82373046875E-5,78,50,42,22612,5492,10409,4627,16750572,15612,3164,1059,Tag0,unknown
1545003853489,0,91,1.99951171875E-5,78,50,42,22612,5492,10409,4627,16750572,15612,3164,1059,Tag0,unknown
1545003853489,0,89,1.95556640625E-5,78,50,42,22612,5492,10409,4627,16750572,15612,3164,1059,Tag0,unknown
1545003853489,0,75,1.64794921875E-5,78,50,42,22612,5492,10409,4627,16750572,15612,3164,1059,Tag0,unknown
1545003853490,0,60,1.318359375E-5,78,50,42,22612,5492,10409,4627,16750572,15612,3164,1059,Tag0,unknown
1545003853490,0,64,1.40625E-5,78,50,42,22612,5492,10409,4627,16750572,15612,3164,1059,Tag0,unknown
1545003853490,0,71,1.56005859375E-5,78,50,42,22612,5492,10409,4627,16750572,15612,3164,1059,Tag0,unknown
1545003853490,0,74,1.6259765625E-5,78,50,42,22612,5492,10409,4627,16750572,15612,3164,1059,Tag0,unknown
1545003853491,0,69,1.51611328125E-5,78,50,42,22612,5492,10409,4627,16750572,15612,3164,1059,Tag0,unknown
1545003853491,0,66,1.4501953125E-5,78,50,42,22612,5492,10409,4627,16750572,15612,3164,1059,Tag0,unknown
1545003853491,0,59,1.29638671875E-5,78,50,42,22612,5492,10409,4627,16750572,15612,3164,1059,Tag0,unknown
1545003853491,0,55,1.20849609375E-5,78,50,42,22612,5492,10409,4627,16750572,15612,3164,1059,Tag0,unknown
1545003853491,0,44,9.66796875E-6,78,50,42,22612,5492,10409,4627,16750572,15612,3164,1059,Tag0,unknown
1545003853491,0,39,8.5693359375E-6,78,50,42,22612,5492,10409,4627,16750572,15612,3164,1059,Tag0,unknown
1545003853492,0,43,9.448242187500001E-6,78,50,42,22612,5492,10409,4627,16750572,15612,3164,1059,Tag0,unknown
1545003853492,0,57,1.2524414062500001E-5,78,50,42,22612,5492,10409,4627,16750572,15612,3164,1059,Tag0,unknown
1545003853492,0,53,1.1645507812500002E-5,78,50,42,22612,5492,10409,4627,16750572,15612,3164,1059,Tag0,unknown
1545003853492,0,41,9.008789062499999E-6,78,50,42,22612,5492,10409,4627,16750572,15612,3164,1059,Tag0,unknown
1545003853492,0,50,1.0986328125E-5,78,50,42,22612,5492,10409,4627,16750572,15612,3164,1059,Tag0,unknown
1545003853493,0,66,1.4501953125E-5,78,50,42,22612,5492,10409,4627,16750572,15612,3164,1059,Tag0,unknown
1545003853493,0,69,1.51611328125E-5,78,50,42,22612,5492,10409,4627,16750572,15612,3164,1059,Tag0,unknown
1545003853493,0,61,1.34033203125E-5,78,50,42,22612,5492,10409,4627,16750572,15612,3164,1059,Tag0,unknown
1545003853501,0,64,1.40625E-5,78,50,42,22612,5492,10409,4627,16750572,15612,3164,1059,Tag0,unknown
1545003853501,0,83,1.82373046875E-5,78,50,42,22612,5492,10409,4627,16750572,15612,3164,1059,Tag0,unknown
1545003853502,0,109,2.39501953125E-5,78,50,42,22612,5492,10409,4627,16750572,15612,3164,1059,Tag0,unknown
1545003853541,0,122,2.6806640625E-5,78,50,42,22612,5492,10409,4627,16750572,15612,3164,1059,Tag0,unknown
1545003853541,0,109,2.39501953125E-5,78,50,42,22612,5492,10409,4627,16750572,15612,3164,1059,Tag0,unknown
1545003853542,0,93,2.04345703125E-5,78,50,42,22612,5492,10409,4627,16750572,15612,3164,1059,Tag0,unknown
1545003853542,0,88,1.93359375E-5,78,50,42,22612,5492,10409,4627,16750572,15612,3164,1059,Tag0,unknown
1545003853542,0,89,1.95556640625E-5,78,50,42,22612,5492,10409,4627,16750572,15612,3164,1059,Tag0,unknown
1545003853542,0,99,2.1752929687500003E-5,78,50,42,22612,5492,10409,4627,16750572,15612,3164,1059,Tag0,unknown
1545003853542,0,99,2.1752929687500003E-5,78,50,42,22612,5492,10409,4627,16750572,15612,3164,1059,Tag0,unknown
1545003853543,0,90,1.9775390625E-5,78,50,42,22612,5492,10409,4627,16750572,15612,3164,1059,Tag0,unknown
1545003853543,0,87,1.91162109375E-5,78,50,42,22612,5492,10409,4627,16750572,15612,3164,1059,Tag0,unknown
1545003853543,0,85,1.86767578125E-5,78,50,42,22612,5492,10409,4627,16750572,15612,3164,1059,Tag0,unknown
1545003853543,0,86,1.8896484375000003E-5,78,50,42,22612,5492,10409,4627,16750572,15612,3164,1059,Tag0,unknown
1545003853543,0,83,1.82373046875E-5,78,50,42,22612,5492,10409,4627,16750572,15612,3164,1059,Tag0,unknown
1545003853544,0,76,1.669921875E-5,78,50,42,22612,5492,10409,4627,16750572,15612,3164,1059,Tag0,unknown
1545003853544,0,71,1.56005859375E-5,78,50,42,22612,5492,10409,4627,16750572,15612,3164,1059,Tag0,unknown
1545003853544,0,60,1.318359375E-5,78,50,42,22612,5492,10409,4627,16750572,15612,3164,1059,Tag0,unknown
1545003853544,0,42,9.228515625000002E-6,78,50,42,22612,5492,10409,4627,16750572,15612,3164,1059,Tag0,unknown
1545003853544,0,34,7.4707031250000005E-6,78,50,42,22612,5492,10409,4627,16750572,15612,3164,1059,Tag0,unknown
1545003853544,0,34,7.4707031250000005E-6,78,50,42,22612,5492,10409,4627,16750572,15612,3164,1059,Tag0,unknown
