timestampMs,poorSignal,eegRawValue,eegRawValueVolts,attention,meditation,blinkStrength,delta,theta,alphaLow,alphaHigh,betaLow,betaHigh,gammaLow,gammaMid,tagEvent,location
1545011288465,0,90,1.9775390625E-5,37,34,36,1181905,235255,16120,10295,19063,2666,1256,4955,Tag0,unknown
1545011288465,0,125,2.74658203125E-5,37,34,36,1181905,235255,16120,10295,19063,2666,1256,4955,Tag0,unknown
1545011288466,0,33,7.2509765625E-6,37,34,36,1181905,235255,16120,10295,19063,2666,1256,4955,Tag0,unknown
1545011288474,0,-316,-6.943359375000001E-5,37,34,36,1181905,235255,16120,10295,19063,2666,1256,4955,Tag0,unknown
1545011288474,0,-282,-6.1962890625E-5,37,34,36,1181905,235255,16120,10295,19063,2666,1256,4955,Tag0,unknown
1545011288475,0,115,2.52685546875E-5,37,34,36,1181905,235255,16120,10295,19063,2666,1256,4955,Tag0,unknown
1545011288475,0,-77,-1.69189453125E-5,37,34,36,1181905,235255,16120,10295,19063,2666,1256,4955,Tag0,unknown
1545011288475,0,84,1.8457031250000004E-5,37,34,36,1181905,235255,16120,10295,19063,2666,1256,4955,Tag0,unknown
1545011288475,0,-295,-6.48193359375E-5,37,34,36,1181905,235255,16120,10295,19063,2666,1256,4955,Tag0,unknown
1545011288475,0,-302,-6.6357421875E-5,37,34,36,1181905,235255,16120,10295,19063,2666,1256,4955,Tag0,unknown
1545011288489,0,60,1.318359375E-5,37,34,36,1181905,235255,16120,10295,19063,2666,1256,4955,Tag0,unknown
1545011288491,0,-125,-2.74658203125E-5,37,34,36,1181905,235255,16120,10295,19063,2666,1256,4955,Tag0,unknown
1545011288492,0,67,1.4721679687500002E-5,37,34,36,1181905,235255,16120,10295,19063,2666,1256,4955,Tag0,unknown
1545011288492,0,-294,-6.4599609375E-5,37,34,36,1181905,235255,16120,10295,19063,2666,1256,4955,Tag0,unknown
1545011288492,0,-313,-6.87744140625E-5,37,34,36,1181905,235255,16120,10295,19063,2666,1256,4955,Tag0,unknown
1545011288492,0,51,1.1206054687499999E-5,37,34,36,1181905,235255,16120,10295,19063,2666,1256,4955,Tag0,unknown
1545011288492,0,-107,-2.35107421875E-5,37,34,36,1181905,235255,16120,10295,19063,2666,1256,4955,Tag0,unknown
1545011288492,0,98,2.1533203125E-5,37,34,36,1181905,235255,16120,10295,19063,2666,1256,4955,Tag0,unknown
1545011288493,0,-289,-6.35009765625E-5,37,34,36,1181905,235255,16120,10295,19063,2666,1256,4955,Tag0,unknown
1545011288505,0,-332,-7.294921875E-5,37,34,36,1181905,235255,16120,10295,19063,2666,1256,4955,Tag0,unknown
1545011288506,0,12,2.63671875E-6,37,34,36,1181905,235255,16120,10295,19063,2666,1256,4955,Tag0,unknown
1545011288506,0,105,2.30712890625E-5,37,34,36,1181905,235255,16120,10295,19063,2666,1256,4955,Tag0,unknown
1545011288506,0,72,1.58203125E-5,37,34,36,1181905,235255,16120,10295,19063,2666,1256,4955,Tag0,unknown
1545011288506,0,-273,-5.998535156250001E-5,37,34,36,1181905,235255,16120,10295,19063,2666,1256,4955,Tag0,unknown
1545011288506,0,-298,-6.5478515625E-5,37,34,36,1181905,235255,16120,10295,19063,2666,1256,4955,Tag0,unknown
1545011288506,0,41,9.008789062499999E-6,37,34,36,1181905,235255,16120,10295,19063,2666,1256,4955,Tag0,unknown
1545011288507,0,-119,-2.6147460937500004E-5,37,34,36,1181905,235255,16120,10295,19063,2666,1256,4955,Tag0,unknown
1545011288507,0,118,2.5927734375E-5,37,34,36,1181905,235255,16120,10295,19063,2666,1256,4955,Tag0,unknown
1545011288522,0,16,3.515625E-6,37,34,36,1181905,235255,16120,10295,19063,2666,1256,4955,Tag0,unknown
1545011288524,0,-293,-6.43798828125E-5,37,34,36,1181905,235255,16120,10295,19063,2666,1256,4955,Tag0,unknown
1545011288525,0,29,6.3720703125E-6,37,34,36,1181905,235255,16120,10295,19063,2666,1256,4955,Tag0,unknown
1545011288525,0,-126,-2.7685546875E-5,37,34,36,1181905,235255,16120,10295,19063,2666,1256,4955,Tag0,unknown
1545011288525,0,113,2.48291015625E-5,37,34,36,1181905,235255,16120,10295,19063,2666,1256,4955,Tag0,unknown
1545011288525,0,10,2.197265625E-6,37,34,36,1181905,235255,16120,10295,19063,2666,1256,4955,Tag0,unknown
1545011288525,0,-297,-6.525878906250001E-5,37,34,36,1181905,235255,16120,10295,19063,2666,1256,4955,Tag0,unknown
1545011288525,0,21,4.614257812500001E-6,37,34,36,1181905,235255,16120,10295,19063,2666,1256,4955,Tag0,unknown
1545011288539,0,-111,-2.43896484375E-5,37,34,36,1181905,235255,16120,10295,19063,2666,1256,4955,Tag0,unknown
1545011288539,0,-91,-1.99951171875E-5,37,34,36,1181905,235255,16120,10295,19063,2666,1256,4955,Tag0,unknown
1545011288539,0,66,1.4501953125E-5,37,34,36,1181905,235255,16120,10295,19063,2666,1256,4955,Tag0,unknown
1545011288539,0,-283,-6.218261718750001E-5,37,34,36,1181905,235255,16120,10295,19063,2666,1256,4955,Tag0,unknown
1545011288539,0,1,2.197265625E-7,37,34,36,1181905,235255,16120,10295,19063,2666,1256,4955,Tag0,unknown
1545011288540,0,115,2.52685546875E-5,37,34,36,1181905,235255,16120,10295,19063,2666,1256,4955,Tag0,unknown
1545011288540,0,-109,-2.39501953125E-5,37,34,36,1181905,235255,16120,10295,19063,2666,1256,4955,Tag0,unknown
1545011288540,0,67,1.4721679687500002E-5,37,34,36,1181905,235255,16120,10295,19063,2666,1256,4955,Tag0,unknown
1545011288555,0,-263,-5.7788085937500005E-5,37,34,36,1181905,235255,16120,10295,19063,2666,1256,4955,Tag0,unknown
1545011288555,0,33,7.2509765625E-6,37,34,36,1181905,235255,16120,10295,19063,2666,1256,4955,Tag0,unknown
1545011288558,0,-103,-2.26318359375E-5,37,34,36,1181905,235255,16120,10295,19063,2666,1256,4955,Tag0,unknown
1545011288558,0,-77,-1.69189453125E-5,37,34,36,1181905,235255,16120,10295,19063,2666,1256,4955,Tag0,unknown
1545011288559,0,69,1.51611328125E-5,37,34,36,1181905,235255,16120,10295,19063,2666,1256,4955,Tag0,unknown
1545011288559,0,-293,-6.43798828125E-5,37,34,36,1181905,235255,16120,10295,19063,2666,1256,4955,Tag0,unknown
1545011288559,0,-281,-6.17431640625E-5,37,34,36,1181905,235255,16120,10295,19063,2666,1256,4955,Tag0,unknown
1545011288559,0,84,1.8457031250000004E-5,37,34,36,1181905,235255,16120,10295,19063,2666,1256,4955,Tag0,unknown
1545011288559,0,-112,-2.4609375E-5,37,34,36,1181905,235255,16120,10295,19063,2666,1256,4955,Tag0,unknown
1545011288572,0,71,1.56005859375E-5,37,34,36,1181905,235255,16120,10295,19063,2666,1256,4955,Tag0,unknown
1545011288572,0,-289,-6.35009765625E-5,37,34,36,1181905,235255,16120,10295,19063,2666,1256,4955,Tag0,unknown
1545011288573,0,-283,-6.218261718750001E-5,37,34,36,1181905,235255,16120,10295,19063,2666,1256,4955,Tag0,unknown
1545011288573,0,88,1.93359375E-5,37,34,36,1181905,235255,16120,10295,19063,2666,1256,4955,Tag0,unknown
1545011288573,0,-88,-1.93359375E-5,37,34,36,1181905,235255,16120,10295,19063,2666,1256,4955,Tag0,unknown
1545011288573,0,117,2.5708007812499998E-5,37,34,36,1181905,235255,16120,10295,19063,2666,1256,4955,Tag0,unknown
1545011288573,0,-259,-5.69091796875E-5,37,34,36,1181905,235255,16120,10295,19063,2666,1256,4955,Tag0,unknown
1545011288574,0,-305,-6.70166015625E-5,37,34,36,1181905,235255,16120,10295,19063,2666,1256,4955,Tag0,unknown
1545011288589,0,39,8.5693359375E-6,37,34,36,1181905,235255,16120,10295,19063,2666,1256,4955,Tag0,unknown
1545011288589,0,-124,-2.724609375E-5,37,34,36,1181905,235255,16120,10295,19063,2666,1256,4955,Tag0,unknown
1545011288589,0,96,2.109375E-5,37,34,36,1181905,235255,16120,10295,19063,2666,1256,4955,Tag0,unknown
1545011288590,0,-260,-5.712890625E-5,37,34,36,1181905,235255,16120,10295,19063,2666,1256,4955,Tag0,unknown
1545011288590,0,-279,-6.13037109375E-5,37,34,36,1181905,235255,16120,10295,19063,2666,1256,4955,Tag0,unknown
1545011288590,0,68,1.4941406250000001E-5,37,34,36,1181905,235255,16120,10295,19063,2666,1256,4955,Tag0,unknown
1545011288590,0,-106,-2.3291015625000003E-5,37,34,36,1181905,235255,16120,10295,19063,2666,1256,4955,Tag0,unknown
1545011288590,0,107,2.35107421875E-5,37,34,36,1181905,235255,16120,10295,19063,2666,1256,4955,Tag0,unknown
1545011288590,0,-258,-5.6689453125000004E-5,37,34,36,1181905,235255,16120,10295,19063,2666,1256,4955,Tag0,unknown
1545011288605,0,-308,-6.767578125E-5,37,34,36,1181905,235255,16120,10295,19063,2666,1256,4955,Tag0,unknown
1545011288606,0,18,3.955078125E-6,37,34,36,1181905,235255,16120,10295,19063,2666,1256,4955,Tag0,unknown
1545011288606,0,122,2.6806640625E-5,37,34,36,1181905,235255,16120,10295,19063,2666,1256,4955,Tag0,unknown
1545011288606,0,116,2.548828125E-5,37,34,36,1181905,235255,16120,10295,19063,2666,1256,4955,Tag0,unknown
1545011288606,0,25,5.4931640625E-6,37,34,36,1181905,235255,16120,10295,19063,2666,1256,4955,Tag0,unknown
1545011288607,0,-275,-6.04248046875E-5,37,34,36,1181905,235255,16120,10295,19063,2666,1256,4955,Tag0,unknown
1545011288607,0,44,9.66796875E-6,37,34,36,1181905,235255,16120,10295,19063,2666,1256,4955,Tag0,unknown
1545011288607,0,-108,-2.3730468750000002E-5,37,34,36,1181905,235255,16120,10295,19063,2666,1256,4955,Tag0,unknown
1545011288607,0,-107,-2.35107421875E-5,37,34,36,1181905,235255,16120,10295,19063,2666,1256,4955,Tag0,unknown
1545011288622,0,48,1.0546875E-5,37,34,36,1181905,235255,16120,10295,19063,2666,1256,4955,Tag0,unknown
1545011288622,0,-292,-6.416015625000001E-5,37,34,36,1181905,235255,16120,10295,19063,2666,1256,4955,Tag0,unknown
1545011288639,0,1,2.197265625E-7,37,34,36,1181905,235255,16120,10295,19063,2666,1256,4955,Tag0,unknown
1545011288639,0,107,2.35107421875E-5,37,34,36,1181905,235255,16120,10295,19063,2666,1256,4955,Tag0,unknown
1545011288639,0,-127,-2.79052734375E-5,37,34,36,1181905,235255,16120,10295,19063,2666,1256,4955,Tag0,unknown
1545011288639,0,45,9.8876953125E-6,37,34,36,1181905,235255,16120,10295,19063,2666,1256,4955,Tag0,unknown
1545011288639,0,-282,-6.1962890625E-5,37,34,36,1181905,235255,16120,10295,19063,2666,1256,4955,Tag0,unknown
1545011288640,0,6,1.318359375E-6,37,34,36,1181905,235255,16120,10295,19063,2666,1256,4955,Tag0,unknown
1545011288640,0,108,2.3730468750000002E-5,37,34,36,1181905,235255,16120,10295,19063,2666,1256,4955,Tag0,unknown
1545011288640,0,125,2.74658203125E-5,37,34,36,1181905,235255,16120,10295,19063,2666,1256,4955,Tag0,unknown
1545011288640,0,26,5.712890625E-6,37,34,36,1181905,235255,16120,10295,19063,2666,1256,4955,Tag0,unknown
1545011288640,0,-315,-6.92138671875E-5,37,34,36,1181905,235255,16120,10295,19063,2666,1256,4955,Tag0,unknown
1545011288640,0,-290,-6.3720703125E-5,37,34,36,1181905,235255,16120,10295,19063,2666,1256,4955,Tag0,unknown
1545011288640,0,72,1.58203125E-5,37,34,36,1181905,235255,16120,10295,19063,2666,1256,4955,Tag0,unknown
1545011288641,0,102,2.2412109374999998E-5,37,34,36,1181905,235255,16120,10295,19063,2666,1256,4955,Tag0,unknown
1545011288641,0,16,3.515625E-6,37,34,36,1181905,235255,16120,10295,19063,2666,1256,4955,Tag0,unknown
1545011288655,0,-334,-7.338867187500001E-5,37,34,36,1181905,235255,16120,10295,19063,2666,1256,4955,Tag0,unknown
1545011288658,0,-315,-6.92138671875E-5,37,34,36,1181905,235255,16120,10295,19063,2666,1256,4955,Tag0,unknown
1545011288658,0,68,1.4941406250000001E-5,37,34,36,1181905,235255,16120,10295,19063,2666,1256,4955,Tag0,unknown
1545011288658,0,-110,-2.4169921875E-5,37,34,36,1181905,235255,16120,10295,19063,2666,1256,4955,Tag0,unknown
1545011288659,0,81,1.77978515625E-5,37,34,36,1181905,235255,16120,10295,19063,2666,1256,4955,Tag0,unknown
1545011288659,0,-285,-6.26220703125E-5,37,34,36,1181905,235255,16120,10295,19063,2666,1256,4955,Tag0,unknown
1545011288659,0,-299,-6.56982421875E-5,37,34,36,1181905,235255,16120,10295,19063,2666,1256,4955,Tag0,unknown
1545011288659,0,55,1.20849609375E-5,37,34,36,1181905,235255,16120,10295,19063,2666,1256,4955,Tag0,unknown
1545011288659,0,-121,-2.6586914062500003E-5,37,34,36,1181905,235255,16120,10295,19063,2666,1256,4955,Tag0,unknown
1545011288672,0,82,1.8017578124999998E-5,37,34,36,1181905,235255,16120,10295,19063,2666,1256,4955,Tag0,unknown
1545011288672,0,-275,-6.04248046875E-5,37,34,36,1181905,235255,16120,10295,19063,2666,1256,4955,Tag0,unknown
1545011288673,0,-291,-6.39404296875E-5,37,34,36,1181905,235255,16120,10295,19063,2666,1256,4955,Tag0,unknown
1545011288673,0,64,1.40625E-5,37,34,36,1181905,235255,16120,10295,19063,2666,1256,4955,Tag0,unknown
1545011288673,0,-102,-2.2412109374999998E-5,37,34,36,1181905,235255,16120,10295,19063,2666,1256,4955,Tag0,unknown
1545011288673,0,112,2.4609375E-5,37,34,36,1181905,235255,16120,10295,19063,2666,1256,4955,Tag0,unknown
1545011288673,0,-266,-5.8447265625E-5,37,34,36,1181905,235255,16120,10295,19063,2666,1256,4955,Tag0,unknown
1545011288673,0,-317,-6.96533203125E-5,37,34,36,1181905,235255,16120,10295,19063,2666,1256,4955,Tag0,unknown
1545011288673,0,13,2.8564453125E-6,37,34,36,1181905,235255,16120,10295,19063,2666,1256,4955,Tag0,unknown
1545011288691,0,116,2.548828125E-5,37,34,36,1181905,235255,16120,10295,19063,2666,1256,4955,Tag0,unknown
1545011288691,0,100,2.197265625E-5,37,34,36,1181905,235255,16120,10295,19063,2666,1256,4955,Tag0,unknown
1545011288691,0,-259,-5.69091796875E-5,37,34,36,1181905,235255,16120,10295,19063,2666,1256,4955,Tag0,unknown
1545011288692,0,-305,-6.70166015625E-5,37,34,36,1181905,235255,16120,10295,19063,2666,1256,4955,Tag0,unknown
1545011288692,0,45,9.8876953125E-6,37,34,36,1181905,235255,16120,10295,19063,2666,1256,4955,Tag0,unknown
1545011288692,0,-92,-2.021484375E-5,37,34,36,1181905,235255,16120,10295,19063,2666,1256,4955,Tag0,unknown
1545011288692,0,-110,-2.4169921875E-5,37,34,36,1181905,235255,16120,10295,19063,2666,1256,4955,Tag0,unknown
1545011288692,0,21,4.614257812500001E-6,37,34,36,1181905,235255,16120,10295,19063,2666,1256,4955,Tag0,unknown
1545011288692,0,-301,-6.613769531250001E-5,37,34,36,1181905,235255,16120,10295,19063,2666,1256,4955,Tag0,unknown
1545011288705,0,17,3.7353515625000003E-6,37,34,36,1181905,235255,16120,10295,19063,2666,1256,4955,Tag0,unknown
1545011288706,0,119,2.6147460937500004E-5,37,34,36,1181905,235255,16120,10295,19063,2666,1256,4955,Tag0,unknown
1545011288706,0,116,2.548828125E-5,37,34,36,1181905,235255,16120,10295,19063,2666,1256,4955,Tag0,unknown
1545011288706,0,27,5.9326171875000005E-6,37,34,36,1181905,235255,16120,10295,19063,2666,1256,4955,Tag0,unknown
1545011288706,0,-277,-6.0864257812500005E-5,37,34,36,1181905,235255,16120,10295,19063,2666,1256,4955,Tag0,unknown
1545011288706,0,42,9.228515625000002E-6,37,34,36,1181905,235255,16120,10295,19063,2666,1256,4955,Tag0,unknown
1545011288706,0,-101,-2.2192382812500002E-5,37,34,36,1181905,235255,16120,10295,19063,2666,1256,4955,Tag0,unknown
1545011288722,0,-90,-1.9775390625E-5,37,34,36,1181905,235255,16120,10295,19063,2666,1256,4955,Tag0,unknown
1545011288722,0,58,1.2744140625E-5,37,34,36,1181905,235255,16120,10295,19063,2666,1256,4955,Tag0,unknown
1545011288725,0,-289,-6.35009765625E-5,37,34,36,1181905,235255,16120,10295,19063,2666,1256,4955,Tag0,unknown
1545011288725,0,-269,-5.9106445312499996E-5,37,34,36,1181905,235255,16120,10295,19063,2666,1256,4955,Tag0,unknown
1545011288725,0,85,1.86767578125E-5,37,34,36,1181905,235255,16120,10295,19063,2666,1256,4955,Tag0,unknown
1545011288725,0,122,2.6806640625E-5,37,34,36,1181905,235255,16120,10295,19063,2666,1256,4955,Tag0,unknown
1545011288725,0,52,1.142578125E-5,37,34,36,1181905,235255,16120,10295,19063,2666,1256,4955,Tag0,unknown
1545011288726,0,-277,-6.0864257812500005E-5,37,34,36,1181905,235255,16120,10295,19063,2666,1256,4955,Tag0,unknown
1545011288726,0,-258,-5.6689453125000004E-5,37,34,36,1181905,235255,16120,10295,19063,2666,1256,4955,Tag0,unknown
1545011288739,0,102,2.2412109374999998E-5,37,34,36,1181905,235255,16120,10295,19063,2666,1256,4955,Tag0,unknown
1545011288739,0,-112,-2.4609375E-5,37,34,36,1181905,235255,16120,10295,19063,2666,1256,4955,Tag0,unknown
1545011288739,0,52,1.142578125E-5,37,34,36,1181905,235255,16120,10295,19063,2666,1256,4955,Tag0,unknown
1545011288739,0,-312,-6.85546875E-5,37,34,36,1181905,235255,16120,10295,19063,2666,1256,4955,Tag0,unknown
1545011288739,0,-316,-6.943359375000001E-5,37,34,36,1181905,235255,16120,10295,19063,2666,1256,4955,Tag0,unknown
1545011288740,0,49,1.07666015625E-5,37,34,36,1181905,235255,16120,10295,19063,2666,1256,4955,Tag0,unknown
1545011288740,0,-126,-2.7685546875E-5,37,34,36,1181905,235255,16120,10295,19063,2666,1256,4955,Tag0,unknown
1545011288740,0,77,1.69189453125E-5,37,34,36,1181905,235255,16120,10295,19063,2666,1256,4955,Tag0,unknown
1545011288740,0,-274,-6.0205078124999997E-5,37,34,36,1181905,235255,16120,10295,19063,2666,1256,4955,Tag0,unknown
1545011288755,0,-283,-6.218261718750001E-5,37,34,36,1181905,235255,16120,10295,19063,2666,1256,4955,Tag0,unknown
1545011288758,0,76,1.669921875E-5,37,34,36,1181905,235255,16120,10295,19063,2666,1256,4955,Tag0,unknown
1545011288758,0,-92,-2.021484375E-5,37,34,36,1181905,235255,16120,10295,19063,2666,1256,4955,Tag0,unknown
1545011288758,0,106,2.3291015625000003E-5,37,34,36,1181905,235255,16120,10295,19063,2666,1256,4955,Tag0,unknown
1545011288759,0,-266,-5.8447265625E-5,37,34,36,1181905,235255,16120,10295,19063,2666,1256,4955,Tag0,unknown
1545011288759,0,-309,-6.78955078125E-5,37,34,36,1181905,235255,16120,10295,19063,2666,1256,4955,Tag0,unknown
1545011288759,0,20,4.39453125E-6,37,34,36,1181905,235255,16120,10295,19063,2666,1256,4955,Tag0,unknown
1545011288760,0,105,2.30712890625E-5,37,34,36,1181905,235255,16120,10295,19063,2666,1256,4955,Tag0,unknown
1545011288772,0,74,1.6259765625E-5,37,34,36,1181905,235255,16120,10295,19063,2666,1256,4955,Tag0,unknown
1545011288772,0,-277,-6.0864257812500005E-5,37,34,36,1181905,235255,16120,10295,19063,2666,1256,4955,Tag0,unknown
1545011288772,0,-312,-6.85546875E-5,37,34,36,1181905,235255,16120,10295,19063,2666,1256,4955,Tag0,unknown
1545011288773,0,21,4.614257812500001E-6,37,34,36,1181905,235255,16120,10295,19063,2666,1256,4955,Tag0,unknown
1545011288773,0,119,2.6147460937500004E-5,37,34,36,1181905,235255,16120,10295,19063,2666,1256,4955,Tag0,unknown
1545011288773,0,104,2.28515625E-5,37,34,36,1181905,235255,16120,10295,19063,2666,1256,4955,Tag0,unknown
1545011288773,0,1,2.197265625E-7,37,34,36,1181905,235255,16120,10295,19063,2666,1256,4955,Tag0,unknown
1545011288773,0,-313,-6.87744140625E-5,37,34,36,1181905,235255,16120,10295,19063,2666,1256,4955,Tag0,unknown
1545011288774,0,5,1.0986328125E-6,37,34,36,1181905,235255,16120,10295,19063,2666,1256,4955,Tag0,unknown
1545011288789,0,113,2.48291015625E-5,37,34,36,1181905,235255,16120,10295,19063,2666,1256,4955,Tag0,unknown
1545011288789,0,120,2.63671875E-5,37,34,36,1181905,235255,16120,10295,19063,2666,1256,4955,Tag0,unknown
1545011288791,0,34,7.4707031250000005E-6,37,34,36,1181905,235255,16120,10295,19063,2666,1256,4955,Tag0,unknown
1545011288791,0,-277,-6.0864257812500005E-5,37,34,36,1181905,235255,16120,10295,19063,2666,1256,4955,Tag0,unknown
1545011288805,0,38,8.349609375E-6,37,34,36,1181905,235255,16120,10295,19063,2666,1256,4955,Tag0,unknown
1545011288805,0,-106,-2.3291015625000003E-5,37,34,36,1181905,235255,16120,10295,19063,2666,1256,4955,Tag0,unknown
1545011288806,0,-105,-2.30712890625E-5,37,34,36,1181905,235255,16120,10295,19063,2666,1256,4955,Tag0,unknown
1545011288822,0,33,7.2509765625E-6,37,34,36,1181905,235255,16120,10295,19063,2666,1256,4955,Tag0,unknown
1545011288824,0,-317,-6.96533203125E-5,37,34,36,1181905,235255,16120,10295,19063,2666,1256,4955,Tag0,unknown
1545011288824,0,-293,-6.43798828125E-5,37,34,36,1181905,235255,16120,10295,19063,2666,1256,4955,Tag0,unknown
1545011288824,0,71,1.56005859375E-5,37,34,36,1181905,235255,16120,10295,19063,2666,1256,4955,Tag0,unknown
1545011288825,0,104,2.28515625E-5,37,34,36,1181905,235255,16120,10295,19063,2666,1256,4955,Tag0,unknown
1545011288825,0,19,4.1748046875E-6,37,34,36,1181905,235255,16120,10295,19063,2666,1256,4955,Tag0,unknown
1545011288825,0,-326,-7.163085937500001E-5,37,34,36,1181905,235255,16120,10295,19063,2666,1256,4955,Tag0,unknown
1545011288825,0,-310,-6.8115234375E-5,37,34,36,1181905,235255,16120,10295,19063,2666,1256,4955,Tag0,unknown
1545011288825,0,50,1.0986328125E-5,37,34,36,1181905,235255,16120,10295,19063,2666,1256,4955,Tag0,unknown
1545011288825,0,83,1.82373046875E-5,37,34,36,1181905,235255,16120,10295,19063,2666,1256,4955,Tag0,unknown
1545011288825,0,-261,-5.73486328125E-5,37,34,36,1181905,235255,16120,10295,19063,2666,1256,4955,Tag0,unknown
1545011288826,0,-363,-7.97607421875E-5,37,34,36,1181905,235255,16120,10295,19063,2666,1256,4955,Tag0,unknown
1545011288826,0,-370,-8.1298828125E-5,37,34,36,1181905,235255,16120,10295,19063,2666,1256,4955,Tag0,unknown
1545011288826,0,0,0.0,37,34,36,1181905,235255,16120,10295,19063,2666,1256,4955,Tag0,unknown
1545011288826,0,85,1.86767578125E-5,37,34,36,1181905,235255,16120,10295,19063,2666,1256,4955,Tag0,unknown
1545011288826,0,35,7.6904296875E-6,37,34,36,1181905,235255,16120,10295,19063,2666,1256,4955,Tag0,unknown
1545011288826,0,-322,-7.0751953125E-5,37,34,36,1181905,235255,16120,10295,19063,2666,1256,4955,Tag0,unknown
1545011288827,0,-337,-7.40478515625E-5,37,34,36,1181905,235255,16120,10295,19063,2666,1256,4955,Tag0,unknown
1545011288839,0,25,5.4931640625E-6,37,34,36,1181905,235255,16120,10295,19063,2666,1256,4955,Tag0,unknown
1545011288839,0,121,2.6586914062500003E-5,37,34,36,1181905,235255,16120,10295,19063,2666,1256,4955,Tag0,unknown
1545011288839,0,88,1.93359375E-5,37,34,36,1181905,235255,16120,10295,19063,2666,1256,4955,Tag0,unknown
1545011288839,0,-273,-5.998535156250001E-5,37,34,36,1181905,235255,16120,10295,19063,2666,1256,4955,Tag0,unknown
1545011288839,0,-314,-6.8994140625E-5,37,34,36,1181905,235255,16120,10295,19063,2666,1256,4955,Tag0,unknown
1545011288839,0,5,1.0986328125E-6,37,34,36,1181905,235255,16120,10295,19063,2666,1256,4955,Tag0,unknown
1545011288839,0,87,1.91162109375E-5,37,34,36,1181905,235255,16120,10295,19063,2666,1256,4955,Tag0,unknown
1545011288840,0,51,1.1206054687499999E-5,37,34,36,1181905,235255,16120,10295,19063,2666,1256,4955,Tag0,unknown
1545011288840,0,-300,-6.591796875E-5,37,34,36,1181905,235255,16120,10295,19063,2666,1256,4955,Tag0,unknown
1545011288855,0,-321,-7.053222656250001E-5,37,34,36,1181905,235255,16120,10295,19063,2666,1256,4955,Tag0,unknown
1545011288858,0,38,8.349609375E-6,37,34,36,1181905,235255,16120,10295,19063,2666,1256,4955,Tag0,unknown
1545011288858,0,-124,-2.724609375E-5,37,34,36,1181905,235255,16120,10295,19063,2666,1256,4955,Tag0,unknown
1545011288858,0,96,2.109375E-5,37,34,36,1181905,235255,16120,10295,19063,2666,1256,4955,Tag0,unknown
1545011288858,0,-275,-6.04248046875E-5,37,34,36,1181905,235255,16120,10295,19063,2666,1256,4955,Tag0,unknown
1545011288859,0,-318,-6.9873046875E-5,37,34,36,1181905,235255,16120,10295,19063,2666,1256,4955,Tag0,unknown
1545011288859,0,20,4.39453125E-6,37,34,36,1181905,235255,16120,10295,19063,2666,1256,4955,Tag0,unknown
1545011288859,0,-121,-2.6586914062500003E-5,37,34,36,1181905,235255,16120,10295,19063,2666,1256,4955,Tag0,unknown
1545011288872,0,-125,-2.74658203125E-5,37,34,36,1181905,235255,16120,10295,19063,2666,1256,4955,Tag0,unknown
1545011288872,0,36,7.91015625E-6,37,34,36,1181905,235255,16120,10295,19063,2666,1256,4955,Tag0,unknown
1545011288872,0,-276,-6.064453125E-5,37,34,36,1181905,235255,16120,10295,19063,2666,1256,4955,Tag0,unknown
1545011288873,0,49,1.07666015625E-5,37,34,36,1181905,235255,16120,10295,19063,2666,1256,4955,Tag0,unknown
1545011288873,0,-96,-2.109375E-5,37,34,36,1181905,235255,16120,10295,19063,2666,1256,4955,Tag0,unknown
1545011288873,0,-95,-2.08740234375E-5,37,34,36,1181905,235255,16120,10295,19063,2666,1256,4955,Tag0,unknown
1545011288873,0,54,1.1865234375000001E-5,37,34,36,1181905,235255,16120,10295,19063,2666,1256,4955,Tag0,unknown
1545011288873,0,-283,-6.218261718750001E-5,37,34,36,1181905,235255,16120,10295,19063,2666,1256,4955,Tag0,unknown
1545011288873,0,17,3.7353515625000003E-6,37,34,36,1181905,235255,16120,10295,19063,2666,1256,4955,Tag0,unknown
1545011288889,0,-120,-2.63671875E-5,37,34,36,1181905,235255,16120,10295,19063,2666,1256,4955,Tag0,unknown
1545011288891,0,-106,-2.3291015625000003E-5,37,34,36,1181905,235255,16120,10295,19063,2666,1256,4955,Tag0,unknown
1545011288891,0,50,1.0986328125E-5,37,34,36,1181905,235255,16120,10295,19063,2666,1256,4955,Tag0,unknown
1545011288891,0,-284,-6.240234375E-5,37,34,36,1181905,235255,16120,10295,19063,2666,1256,4955,Tag0,unknown
1545011288891,0,17,3.7353515625000003E-6,37,34,36,1181905,235255,16120,10295,19063,2666,1256,4955,Tag0,unknown
1545011288891,0,-122,-2.6806640625E-5,37,34,36,1181905,235255,16120,10295,19063,2666,1256,4955,Tag0,unknown
1545011288892,0,-91,-1.99951171875E-5,37,34,36,1181905,235255,16120,10295,19063,2666,1256,4955,Tag0,unknown
1545011288892,0,70,1.5380859375E-5,37,34,36,1181905,235255,16120,10295,19063,2666,1256,4955,Tag0,unknown
1545011288905,0,-277,-6.0864257812500005E-5,37,34,36,1181905,235255,16120,10295,19063,2666,1256,4955,Tag0,unknown
1545011288906,0,-258,-5.6689453125000004E-5,37,34,36,1181905,235255,16120,10295,19063,2666,1256,4955,Tag0,unknown
1545011288906,0,116,2.548828125E-5,37,34,36,1181905,235255,16120,10295,19063,2666,1256,4955,Tag0,unknown
1545011288907,0,-83,-1.82373046875E-5,37,34,36,1181905,235255,16120,10295,19063,2666,1256,4955,Tag0,unknown
1545011288907,0,105,2.30712890625E-5,37,34,36,1181905,235255,16120,10295,19063,2666,1256,4955,Tag0,unknown
1545011288907,0,10,2.197265625E-6,37,34,36,1181905,235255,16120,10295,19063,2666,1256,4955,Tag0,unknown
1545011288907,0,11,2.4169921875E-6,37,34,36,1181905,235255,16120,10295,19063,2666,1256,4955,Tag0,unknown
1545011288908,0,119,2.6147460937500004E-5,37,34,36,1181905,235255,16120,10295,19063,2666,1256,4955,Tag0,unknown
1545011288908,0,-69,-1.51611328125E-5,37,34,36,1181905,235255,16120,10295,19063,2666,1256,4955,Tag0,unknown
1545011288922,0,121,2.6586914062500003E-5,37,34,36,1181905,235255,16120,10295,19063,2666,1256,4955,Tag0,unknown
1545011288924,0,17,3.7353515625000003E-6,37,34,36,1181905,235255,16120,10295,19063,2666,1256,4955,Tag0,unknown
1545011288924,0,-257,-5.64697265625E-5,37,34,36,1181905,235255,16120,10295,19063,2666,1256,4955,Tag0,unknown
1545011288925,0,80,1.7578125E-5,37,34,36,1181905,235255,16120,10295,19063,2666,1256,4955,Tag0,unknown
1545011288925,0,-106,-2.3291015625000003E-5,37,34,36,1181905,235255,16120,10295,19063,2666,1256,4955,Tag0,unknown
1545011288925,0,108,2.3730468750000002E-5,37,34,36,1181905,235255,16120,10295,19063,2666,1256,4955,Tag0,unknown
1545011288925,0,13,2.8564453125E-6,37,34,36,1181905,235255,16120,10295,19063,2666,1256,4955,Tag0,unknown
1545011288925,0,-267,-5.86669921875E-5,37,34,36,1181905,235255,16120,10295,19063,2666,1256,4955,Tag0,unknown
1545011288925,0,76,1.669921875E-5,37,34,36,1181905,235255,16120,10295,19063,2666,1256,4955,Tag0,unknown
1545011288939,0,-85,-1.86767578125E-5,37,34,36,1181905,235255,16120,10295,19063,2666,1256,4955,Tag0,unknown
1545011288939,0,-117,-2.5708007812499998E-5,37,34,36,1181905,235255,16120,10295,19063,2666,1256,4955,Tag0,unknown
1545011288939,0,23,5.0537109375E-6,37,34,36,1181905,235255,16120,10295,19063,2666,1256,4955,Tag0,unknown
1545011288939,0,-291,-6.39404296875E-5,37,34,36,1181905,235255,16120,10295,19063,2666,1256,4955,Tag0,unknown
1545011288939,0,43,9.448242187500001E-6,37,34,36,1181905,235255,16120,10295,19063,2666,1256,4955,Tag0,unknown
1545011288939,0,-103,-2.26318359375E-5,37,34,36,1181905,235255,16120,10295,19063,2666,1256,4955,Tag0,unknown
1545011288940,0,-123,-2.70263671875E-5,37,34,36,1181905,235255,16120,10295,19063,2666,1256,4955,Tag0,unknown
1545011288940,0,25,5.4931640625E-6,37,34,36,1181905,235255,16120,10295,19063,2666,1256,4955,Tag0,unknown
1545011288955,0,-286,-6.2841796875E-5,37,34,36,1181905,235255,16120,10295,19063,2666,1256,4955,Tag0,unknown
1545011288958,0,38,8.349609375E-6,37,34,36,1181905,235255,16120,10295,19063,2666,1256,4955,Tag0,unknown
1545011288958,0,-99,-2.1752929687500003E-5,37,34,36,1181905,235255,16120,10295,19063,2666,1256,4955,Tag0,unknown
1545011288958,0,-94,-2.0654296875000002E-5,37,34,36,1181905,235255,16120,10295,19063,2666,1256,4955,Tag0,unknown
1545011288958,0,49,1.07666015625E-5,37,34,36,1181905,235255,16120,10295,19063,2666,1256,4955,Tag0,unknown
1545011288959,0,-289,-6.35009765625E-5,37,34,36,1181905,235255,16120,10295,19063,2666,1256,4955,Tag0,unknown
1545011288959,0,11,2.4169921875E-6,37,34,36,1181905,235255,16120,10295,19063,2666,1256,4955,Tag0,unknown
1545011288959,0,120,2.63671875E-5,37,34,36,1181905,235255,16120,10295,19063,2666,1256,4955,Tag0,unknown
1545011288972,0,-125,-2.74658203125E-5,37,34,36,1181905,235255,16120,10295,19063,2666,1256,4955,Tag0,unknown
1545011288972,0,25,5.4931640625E-6,37,34,36,1181905,235255,16120,10295,19063,2666,1256,4955,Tag0,unknown
1545011288972,0,-315,-6.92138671875E-5,37,34,36,1181905,235255,16120,10295,19063,2666,1256,4955,Tag0,unknown
1545011288973,0,-274,-6.0205078124999997E-5,37,34,36,1181905,235255,16120,10295,19063,2666,1256,4955,Tag0,unknown
1545011288973,0,100,2.197265625E-5,37,34,36,1181905,235255,16120,10295,19063,2666,1256,4955,Tag0,unknown
1545011288973,0,-127,-2.79052734375E-5,37,34,36,1181905,235255,16120,10295,19063,2666,1256,4955,Tag0,unknown
1545011288973,0,23,5.0537109375E-6,37,34,36,1181905,235255,16120,10295,19063,2666,1256,4955,Tag0,unknown
1545011288973,0,-332,-7.294921875E-5,37,34,36,1181905,235255,16120,10295,19063,2666,1256,4955,Tag0,unknown
1545011288973,0,-309,-6.78955078125E-5,37,34,36,1181905,235255,16120,10295,19063,2666,1256,4955,Tag0,unknown
1545011288995,0,67,1.4721679687500002E-5,37,34,36,1181905,235255,16120,10295,19063,2666,1256,4955,Tag0,unknown
1545011288995,0,116,2.548828125E-5,37,34,36,1181905,235255,16120,10295,19063,2666,1256,4955,Tag0,unknown
1545011289005,0,44,9.66796875E-6,37,34,36,1181905,235255,16120,10295,19063,2666,1256,4955,Tag0,unknown
1545011289006,0,-289,-6.35009765625E-5,37,34,36,1181905,235255,16120,10295,19063,2666,1256,4955,Tag0,unknown
1545011289007,0,-279,-6.13037109375E-5,37,34,36,1181905,235255,16120,10295,19063,2666,1256,4955,Tag0,unknown
1545011289008,0,72,1.58203125E-5,37,34,36,1181905,235255,16120,10295,19063,2666,1256,4955,Tag0,unknown
1545011289008,0,122,2.6806640625E-5,37,34,36,1181905,235255,16120,10295,19063,2666,1256,4955,Tag0,unknown
1545011289009,0,52,1.142578125E-5,37,34,36,1181905,235255,16120,10295,19063,2666,1256,4955,Tag0,unknown
1545011289009,0,-307,-6.74560546875E-5,37,34,36,1181905,235255,16120,10295,19063,2666,1256,4955,Tag0,unknown
1545011289013,0,-327,-7.18505859375E-5,37,34,36,1181905,235255,16120,10295,19063,2666,1256,4955,Tag0,unknown
1545011289013,0,8,1.7578125E-6,37,34,36,1181905,235255,16120,10295,19063,2666,1256,4955,Tag0,unknown
1545011289014,0,72,1.58203125E-5,37,34,36,1181905,235255,16120,10295,19063,2666,1256,4955,Tag0,unknown
1545011289014,0,28,6.15234375E-6,37,34,36,1181905,235255,16120,10295,19063,2666,1256,4955,Tag0,unknown
1545011289017,0,-315,-6.92138671875E-5,34,38,36,313564,67925,27597,8311,4623,3309,2624,23985,Tag0,unknown
1545011289018,0,-338,-7.426757812499999E-5,34,38,36,313564,67925,27597,8311,4623,3309,2624,23985,Tag0,unknown
1545011289018,0,13,2.8564453125E-6,34,38,36,313564,67925,27597,8311,4623,3309,2624,23985,Tag0,unknown
1545011289018,0,102,2.2412109374999998E-5,34,38,36,313564,67925,27597,8311,4623,3309,2624,23985,Tag0,unknown
1545011289018,0,55,1.20849609375E-5,34,38,36,313564,67925,27597,8311,4623,3309,2624,23985,Tag0,unknown
1545011289019,0,-314,-6.8994140625E-5,34,38,36,313564,67925,27597,8311,4623,3309,2624,23985,Tag0,unknown
1545011289025,0,-344,-7.558593750000001E-5,34,38,36,313564,67925,27597,8311,4623,3309,2624,23985,Tag0,unknown
1545011289026,0,22,4.833984375E-6,34,38,36,313564,67925,27597,8311,4623,3309,2624,23985,Tag0,unknown
1545011289026,0,-108,-2.3730468750000002E-5,34,38,36,313564,67925,27597,8311,4623,3309,2624,23985,Tag0,unknown
1545011289026,0,-126,-2.7685546875E-5,34,38,36,313564,67925,27597,8311,4623,3309,2624,23985,Tag0,unknown
1545011289026,0,17,3.7353515625000003E-6,34,38,36,313564,67925,27597,8311,4623,3309,2624,23985,Tag0,unknown
1545011289027,0,-294,-6.4599609375E-5,34,38,36,313564,67925,27597,8311,4623,3309,2624,23985,Tag0,unknown
1545011289027,0,37,8.1298828125E-6,34,38,36,313564,67925,27597,8311,4623,3309,2624,23985,Tag0,unknown
1545011289027,0,-115,-2.52685546875E-5,34,38,36,313564,67925,27597,8311,4623,3309,2624,23985,Tag0,unknown
1545011289040,0,-126,-2.7685546875E-5,34,38,36,313564,67925,27597,8311,4623,3309,2624,23985,Tag0,unknown
1545011289040,0,21,4.614257812500001E-6,34,38,36,313564,67925,27597,8311,4623,3309,2624,23985,Tag0,unknown
1545011289043,0,-295,-6.48193359375E-5,34,38,36,313564,67925,27597,8311,4623,3309,2624,23985,Tag0,unknown
1545011289043,0,21,4.614257812500001E-6,34,38,36,313564,67925,27597,8311,4623,3309,2624,23985,Tag0,unknown
1545011289044,0,-125,-2.74658203125E-5,34,38,36,313564,67925,27597,8311,4623,3309,2624,23985,Tag0,unknown
1545011289044,0,-127,-2.79052734375E-5,34,38,36,313564,67925,27597,8311,4623,3309,2624,23985,Tag0,unknown
1545011289044,0,18,3.955078125E-6,34,38,36,313564,67925,27597,8311,4623,3309,2624,23985,Tag0,unknown
1545011289044,0,-315,-6.92138671875E-5,34,38,36,313564,67925,27597,8311,4623,3309,2624,23985,Tag0,unknown
1545011289056,0,-268,-5.8886718750000006E-5,34,38,36,313564,67925,27597,8311,4623,3309,2624,23985,Tag0,unknown
1545011289056,0,98,2.1533203125E-5,34,38,36,313564,67925,27597,8311,4623,3309,2624,23985,Tag0,unknown
1545011289057,0,121,2.6586914062500003E-5,34,38,36,313564,67925,27597,8311,4623,3309,2624,23985,Tag0,unknown
1545011289057,0,21,4.614257812500001E-6,34,38,36,313564,67925,27597,8311,4623,3309,2624,23985,Tag0,unknown
1545011289058,0,-326,-7.163085937500001E-5,34,38,36,313564,67925,27597,8311,4623,3309,2624,23985,Tag0,unknown
1545011289058,0,-294,-6.4599609375E-5,34,38,36,313564,67925,27597,8311,4623,3309,2624,23985,Tag0,unknown
1545011289058,0,85,1.86767578125E-5,34,38,36,313564,67925,27597,8311,4623,3309,2624,23985,Tag0,unknown
1545011289059,0,-125,-2.74658203125E-5,34,38,36,313564,67925,27597,8311,4623,3309,2624,23985,Tag0,unknown
1545011289073,0,42,9.228515625000002E-6,34,38,36,313564,67925,27597,8311,4623,3309,2624,23985,Tag0,unknown
1545011289074,0,-301,-6.613769531250001E-5,34,38,36,313564,67925,27597,8311,4623,3309,2624,23985,Tag0,unknown
1545011289074,0,-281,-6.17431640625E-5,34,38,36,313564,67925,27597,8311,4623,3309,2624,23985,Tag0,unknown
1545011289074,0,91,1.99951171875E-5,34,38,36,313564,67925,27597,8311,4623,3309,2624,23985,Tag0,unknown
1545011289074,0,-95,-2.08740234375E-5,34,38,36,313564,67925,27597,8311,4623,3309,2624,23985,Tag0,unknown
1545011289075,0,91,1.99951171875E-5,34,38,36,313564,67925,27597,8311,4623,3309,2624,23985,Tag0,unknown
1545011289077,0,-266,-5.8447265625E-5,34,38,36,313564,67925,27597,8311,4623,3309,2624,23985,Tag0,unknown
1545011289078,0,-280,-6.15234375E-5,34,38,36,313564,67925,27597,8311,4623,3309,2624,23985,Tag0,unknown
1545011289078,0,68,1.4941406250000001E-5,34,38,36,313564,67925,27597,8311,4623,3309,2624,23985,Tag0,unknown
1545011289089,0,-126,-2.7685546875E-5,34,38,36,313564,67925,27597,8311,4623,3309,2624,23985,Tag0,unknown
1545011289089,0,64,1.40625E-5,34,38,36,313564,67925,27597,8311,4623,3309,2624,23985,Tag0,unknown
1545011289089,0,-290,-6.3720703125E-5,34,38,36,313564,67925,27597,8311,4623,3309,2624,23985,Tag0,unknown
1545011289090,0,-299,-6.56982421875E-5,34,38,36,313564,67925,27597,8311,4623,3309,2624,23985,Tag0,unknown
1545011289090,0,53,1.1645507812500002E-5,34,38,36,313564,67925,27597,8311,4623,3309,2624,23985,Tag0,unknown
1545011289090,0,-121,-2.6586914062500003E-5,34,38,36,313564,67925,27597,8311,4623,3309,2624,23985,Tag0,unknown
1545011289091,0,81,1.77978515625E-5,34,38,36,313564,67925,27597,8311,4623,3309,2624,23985,Tag0,unknown
1545011289106,0,-289,-6.35009765625E-5,34,38,36,313564,67925,27597,8311,4623,3309,2624,23985,Tag0,unknown
1545011289107,0,-316,-6.943359375000001E-5,34,38,36,313564,67925,27597,8311,4623,3309,2624,23985,Tag0,unknown
1545011289107,0,32,7.03125E-6,34,38,36,313564,67925,27597,8311,4623,3309,2624,23985,Tag0,unknown
1545011289107,0,-125,-2.74658203125E-5,34,38,36,313564,67925,27597,8311,4623,3309,2624,23985,Tag0,unknown
1545011289110,0,97,2.13134765625E-5,34,38,36,313564,67925,27597,8311,4623,3309,2624,23985,Tag0,unknown
1545011289110,0,-261,-5.73486328125E-5,34,38,36,313564,67925,27597,8311,4623,3309,2624,23985,Tag0,unknown
1545011289110,0,-284,-6.240234375E-5,34,38,36,313564,67925,27597,8311,4623,3309,2624,23985,Tag0,unknown
1545011289111,0,68,1.4941406250000001E-5,34,38,36,313564,67925,27597,8311,4623,3309,2624,23985,Tag0,unknown
1545011289111,0,-77,-1.69189453125E-5,34,38,36,313564,67925,27597,8311,4623,3309,2624,23985,Tag0,unknown
1545011289123,0,-101,-2.2192382812500002E-5,34,38,36,313564,67925,27597,8311,4623,3309,2624,23985,Tag0,unknown
1545011289124,0,35,7.6904296875E-6,34,38,36,313564,67925,27597,8311,4623,3309,2624,23985,Tag0,unknown
1545011289124,0,-282,-6.1962890625E-5,34,38,36,313564,67925,27597,8311,4623,3309,2624,23985,Tag0,unknown
1545011289124,0,33,7.2509765625E-6,34,38,36,313564,67925,27597,8311,4623,3309,2624,23985,Tag0,unknown
1545011289124,0,-123,-2.70263671875E-5,34,38,36,313564,67925,27597,8311,4623,3309,2624,23985,Tag0,unknown
1545011289124,0,124,2.724609375E-5,34,38,36,313564,67925,27597,8311,4623,3309,2624,23985,Tag0,unknown
1545011289125,0,20,4.39453125E-6,34,38,36,313564,67925,27597,8311,4623,3309,2624,23985,Tag0,unknown
1545011289125,0,-308,-6.767578125E-5,34,38,36,313564,67925,27597,8311,4623,3309,2624,23985,Tag0,unknown
1545011289126,0,-263,-5.7788085937500005E-5,34,38,36,313564,67925,27597,8311,4623,3309,2624,23985,Tag0,unknown
1545011289140,0,105,2.30712890625E-5,34,38,36,313564,67925,27597,8311,4623,3309,2624,23985,Tag0,unknown
1545011289140,0,-124,-2.724609375E-5,34,38,36,313564,67925,27597,8311,4623,3309,2624,23985,Tag0,unknown
1545011289140,0,28,6.15234375E-6,34,38,36,313564,67925,27597,8311,4623,3309,2624,23985,Tag0,unknown
1545011289141,0,-323,-7.09716796875E-5,34,38,36,313564,67925,27597,8311,4623,3309,2624,23985,Tag0,unknown
1545011289141,0,-293,-6.43798828125E-5,34,38,36,313564,67925,27597,8311,4623,3309,2624,23985,Tag0,unknown
1545011289141,0,84,1.8457031250000004E-5,34,38,36,313564,67925,27597,8311,4623,3309,2624,23985,Tag0,unknown
1545011289141,0,123,2.70263671875E-5,34,38,36,313564,67925,27597,8311,4623,3309,2624,23985,Tag0,unknown
1545011289142,0,41,9.008789062499999E-6,34,38,36,313564,67925,27597,8311,4623,3309,2624,23985,Tag0,unknown
1545011289142,0,-293,-6.43798828125E-5,34,38,36,313564,67925,27597,8311,4623,3309,2624,23985,Tag0,unknown
1545011289156,0,-261,-5.73486328125E-5,34,38,36,313564,67925,27597,8311,4623,3309,2624,23985,Tag0,unknown
1545011289156,0,117,2.5708007812499998E-5,34,38,36,313564,67925,27597,8311,4623,3309,2624,23985,Tag0,unknown
1545011289156,0,-79,-1.7358398437500003E-5,34,38,36,313564,67925,27597,8311,4623,3309,2624,23985,Tag0,unknown
1545011289156,0,91,1.99951171875E-5,34,38,36,313564,67925,27597,8311,4623,3309,2624,23985,Tag0,unknown
1545011289157,0,-279,-6.13037109375E-5,34,38,36,313564,67925,27597,8311,4623,3309,2624,23985,Tag0,unknown
1545011289157,0,-295,-6.48193359375E-5,34,38,36,313564,67925,27597,8311,4623,3309,2624,23985,Tag0,unknown
1545011289158,0,64,1.40625E-5,34,38,36,313564,67925,27597,8311,4623,3309,2624,23985,Tag0,unknown
1545011289159,0,-109,-2.39501953125E-5,34,38,36,313564,67925,27597,8311,4623,3309,2624,23985,Tag0,unknown
1545011289175,0,100,2.197265625E-5,34,38,36,313564,67925,27597,8311,4623,3309,2624,23985,Tag0,unknown
1545011289175,0,11,2.4169921875E-6,34,38,36,313564,67925,27597,8311,4623,3309,2624,23985,Tag0,unknown
1545011289178,0,0,0.0,34,38,36,313564,67925,27597,8311,4623,3309,2624,23985,Tag0,unknown
1545011289179,0,91,1.99951171875E-5,34,38,36,313564,67925,27597,8311,4623,3309,2624,23985,Tag0,unknown
1545011289179,0,-92,-2.021484375E-5,34,38,36,313564,67925,27597,8311,4623,3309,2624,23985,Tag0,unknown
1545011289179,0,105,2.30712890625E-5,34,38,36,313564,67925,27597,8311,4623,3309,2624,23985,Tag0,unknown
1545011289179,0,-268,-5.8886718750000006E-5,34,38,36,313564,67925,27597,8311,4623,3309,2624,23985,Tag0,unknown
1545011289179,0,-309,-6.78955078125E-5,34,38,36,313564,67925,27597,8311,4623,3309,2624,23985,Tag0,unknown
1545011289180,0,32,7.03125E-6,34,38,36,313564,67925,27597,8311,4623,3309,2624,23985,Tag0,unknown
1545011289180,0,124,2.724609375E-5,34,38,36,313564,67925,27597,8311,4623,3309,2624,23985,Tag0,unknown
1545011289189,0,100,2.197265625E-5,34,38,36,313564,67925,27597,8311,4623,3309,2624,23985,Tag0,unknown
1545011289189,0,-259,-5.69091796875E-5,34,38,36,313564,67925,27597,8311,4623,3309,2624,23985,Tag0,unknown
1545011289189,0,-291,-6.39404296875E-5,34,38,36,313564,67925,27597,8311,4623,3309,2624,23985,Tag0,unknown
1545011289189,0,61,1.34033203125E-5,34,38,36,313564,67925,27597,8311,4623,3309,2624,23985,Tag0,unknown
1545011289190,0,-79,-1.7358398437500003E-5,34,38,36,313564,67925,27597,8311,4623,3309,2624,23985,Tag0,unknown
1545011289190,0,-99,-2.1752929687500003E-5,34,38,36,313564,67925,27597,8311,4623,3309,2624,23985,Tag0,unknown
1545011289190,0,43,9.448242187500001E-6,34,38,36,313564,67925,27597,8311,4623,3309,2624,23985,Tag0,unknown
1545011289210,0,-279,-6.13037109375E-5,34,38,36,313564,67925,27597,8311,4623,3309,2624,23985,Tag0,unknown
1545011289210,0,41,9.008789062499999E-6,34,38,36,313564,67925,27597,8311,4623,3309,2624,23985,Tag0,unknown
1545011289210,0,-103,-2.26318359375E-5,34,38,36,313564,67925,27597,8311,4623,3309,2624,23985,Tag0,unknown
1545011289210,0,-109,-2.39501953125E-5,34,38,36,313564,67925,27597,8311,4623,3309,2624,23985,Tag0,unknown
1545011289213,0,34,7.4707031250000005E-6,34,38,36,313564,67925,27597,8311,4623,3309,2624,23985,Tag0,unknown
1545011289214,0,-291,-6.39404296875E-5,34,38,36,313564,67925,27597,8311,4623,3309,2624,23985,Tag0,unknown
1545011289214,0,21,4.614257812500001E-6,34,38,36,313564,67925,27597,8311,4623,3309,2624,23985,Tag0,unknown
1545011289214,0,123,2.70263671875E-5,34,38,36,313564,67925,27597,8311,4623,3309,2624,23985,Tag0,unknown
1545011289214,0,-124,-2.724609375E-5,34,38,36,313564,67925,27597,8311,4623,3309,2624,23985,Tag0,unknown
1545011289215,0,41,9.008789062499999E-6,34,38,36,313564,67925,27597,8311,4623,3309,2624,23985,Tag0,unknown
1545011289215,0,-295,-6.48193359375E-5,34,38,36,313564,67925,27597,8311,4623,3309,2624,23985,Tag0,unknown
1545011289223,0,-273,-5.998535156250001E-5,34,38,36,313564,67925,27597,8311,4623,3309,2624,23985,Tag0,unknown
1545011289223,0,84,1.8457031250000004E-5,34,38,36,313564,67925,27597,8311,4623,3309,2624,23985,Tag0,unknown
1545011289224,0,116,2.548828125E-5,34,38,36,313564,67925,27597,8311,4623,3309,2624,23985,Tag0,unknown
1545011289224,0,42,9.228515625000002E-6,34,38,36,313564,67925,27597,8311,4623,3309,2624,23985,Tag0,unknown
1545011289224,0,-284,-6.240234375E-5,34,38,36,313564,67925,27597,8311,4623,3309,2624,23985,Tag0,unknown
1545011289224,0,-263,-5.7788085937500005E-5,34,38,36,313564,67925,27597,8311,4623,3309,2624,23985,Tag0,unknown
1545011289224,0,81,1.77978515625E-5,34,38,36,313564,67925,27597,8311,4623,3309,2624,23985,Tag0,unknown
1545011289244,0,104,2.28515625E-5,34,38,36,313564,67925,27597,8311,4623,3309,2624,23985,Tag0,unknown
1545011289247,0,21,4.614257812500001E-6,34,38,36,313564,67925,27597,8311,4623,3309,2624,23985,Tag0,unknown
1545011289248,0,-327,-7.18505859375E-5,34,38,36,313564,67925,27597,8311,4623,3309,2624,23985,Tag0,unknown
1545011289249,0,-316,-6.943359375000001E-5,34,38,36,313564,67925,27597,8311,4623,3309,2624,23985,Tag0,unknown
1545011289253,0,48,1.0546875E-5,34,38,36,313564,67925,27597,8311,4623,3309,2624,23985,Tag0,unknown
1545011289253,0,108,2.3730468750000002E-5,34,38,36,313564,67925,27597,8311,4623,3309,2624,23985,Tag0,unknown
1545011289253,0,44,9.66796875E-6,34,38,36,313564,67925,27597,8311,4623,3309,2624,23985,Tag0,unknown
1545011289254,0,-297,-6.525878906250001E-5,34,38,36,313564,67925,27597,8311,4623,3309,2624,23985,Tag0,unknown
1545011289254,0,-285,-6.26220703125E-5,34,38,36,313564,67925,27597,8311,4623,3309,2624,23985,Tag0,unknown
1545011289254,0,82,1.8017578124999998E-5,34,38,36,313564,67925,27597,8311,4623,3309,2624,23985,Tag0,unknown
1545011289256,0,-93,-2.04345703125E-5,34,38,36,313564,67925,27597,8311,4623,3309,2624,23985,Tag0,unknown
1545011289257,0,114,2.5048828125000003E-5,34,38,36,313564,67925,27597,8311,4623,3309,2624,23985,Tag0,unknown
1545011289257,0,0,0.0,34,38,36,313564,67925,27597,8311,4623,3309,2624,23985,Tag0,unknown
1545011289257,0,-286,-6.2841796875E-5,34,38,36,313564,67925,27597,8311,4623,3309,2624,23985,Tag0,unknown
1545011289258,0,64,1.40625E-5,34,38,36,313564,67925,27597,8311,4623,3309,2624,23985,Tag0,unknown
1545011289275,0,-111,-2.43896484375E-5,34,38,36,313564,67925,27597,8311,4623,3309,2624,23985,Tag0,unknown
1545011289275,0,99,2.1752929687500003E-5,34,38,36,313564,67925,27597,8311,4623,3309,2624,23985,Tag0,unknown
1545011289276,0,3,6.591796875E-7,34,38,36,313564,67925,27597,8311,4623,3309,2624,23985,Tag0,unknown
1545011289276,0,-270,-5.9326171875E-5,34,38,36,313564,67925,27597,8311,4623,3309,2624,23985,Tag0,unknown
1545011289276,0,81,1.77978515625E-5,34,38,36,313564,67925,27597,8311,4623,3309,2624,23985,Tag0,unknown
1545011289276,0,-78,-1.7138671875E-5,34,38,36,313564,67925,27597,8311,4623,3309,2624,23985,Tag0,unknown
1545011289277,0,-110,-2.4169921875E-5,34,38,36,313564,67925,27597,8311,4623,3309,2624,23985,Tag0,unknown
1545011289277,0,27,5.9326171875000005E-6,34,38,36,313564,67925,27597,8311,4623,3309,2624,23985,Tag0,unknown
1545011289277,0,-290,-6.3720703125E-5,34,38,36,313564,67925,27597,8311,4623,3309,2624,23985,Tag0,unknown
1545011289277,0,33,7.2509765625E-6,34,38,36,313564,67925,27597,8311,4623,3309,2624,23985,Tag0,unknown
1545011289278,0,-115,-2.52685546875E-5,34,38,36,313564,67925,27597,8311,4623,3309,2624,23985,Tag0,unknown
1545011289289,0,-122,-2.6806640625E-5,34,38,36,313564,67925,27597,8311,4623,3309,2624,23985,Tag0,unknown
1545011289289,0,29,6.3720703125E-6,34,38,36,313564,67925,27597,8311,4623,3309,2624,23985,Tag0,unknown
1545011289292,0,-297,-6.525878906250001E-5,34,38,36,313564,67925,27597,8311,4623,3309,2624,23985,Tag0,unknown
1545011289293,0,11,2.4169921875E-6,34,38,36,313564,67925,27597,8311,4623,3309,2624,23985,Tag0,unknown
1545011289293,0,125,2.74658203125E-5,34,38,36,313564,67925,27597,8311,4623,3309,2624,23985,Tag0,unknown
1545011289293,0,-125,-2.74658203125E-5,34,38,36,313564,67925,27597,8311,4623,3309,2624,23985,Tag0,unknown
1545011289293,0,20,4.39453125E-6,34,38,36,313564,67925,27597,8311,4623,3309,2624,23985,Tag0,unknown
1545011289305,0,-314,-6.8994140625E-5,34,38,36,313564,67925,27597,8311,4623,3309,2624,23985,Tag0,unknown
1545011289306,0,-261,-5.73486328125E-5,34,38,36,313564,67925,27597,8311,4623,3309,2624,23985,Tag0,unknown
1545011289306,0,113,2.48291015625E-5,34,38,36,313564,67925,27597,8311,4623,3309,2624,23985,Tag0,unknown
1545011289306,0,-128,-2.8125E-5,34,38,36,313564,67925,27597,8311,4623,3309,2624,23985,Tag0,unknown
1545011289306,0,38,8.349609375E-6,34,38,36,313564,67925,27597,8311,4623,3309,2624,23985,Tag0,unknown
1545011289307,0,-280,-6.15234375E-5,34,38,36,313564,67925,27597,8311,4623,3309,2624,23985,Tag0,unknown
1545011289307,0,22,4.833984375E-6,34,38,36,313564,67925,27597,8311,4623,3309,2624,23985,Tag0,unknown
1545011289307,0,-119,-2.6147460937500004E-5,34,38,36,313564,67925,27597,8311,4623,3309,2624,23985,Tag0,unknown
1545011289307,0,-89,-1.95556640625E-5,34,38,36,313564,67925,27597,8311,4623,3309,2624,23985,Tag0,unknown
1545011289324,0,69,1.51611328125E-5,34,38,36,313564,67925,27597,8311,4623,3309,2624,23985,Tag0,unknown
1545011289325,0,-295,-6.48193359375E-5,34,38,36,313564,67925,27597,8311,4623,3309,2624,23985,Tag0,unknown
1545011289325,0,-294,-6.4599609375E-5,34,38,36,313564,67925,27597,8311,4623,3309,2624,23985,Tag0,unknown
1545011289328,0,60,1.318359375E-5,34,38,36,313564,67925,27597,8311,4623,3309,2624,23985,Tag0,unknown
1545011289328,0,112,2.4609375E-5,34,38,36,313564,67925,27597,8311,4623,3309,2624,23985,Tag0,unknown
1545011289328,0,32,7.03125E-6,34,38,36,313564,67925,27597,8311,4623,3309,2624,23985,Tag0,unknown
1545011289328,0,-317,-6.96533203125E-5,34,38,36,313564,67925,27597,8311,4623,3309,2624,23985,Tag0,unknown
1545011289329,0,-300,-6.591796875E-5,34,38,36,313564,67925,27597,8311,4623,3309,2624,23985,Tag0,unknown
1545011289329,0,75,1.64794921875E-5,34,38,36,313564,67925,27597,8311,4623,3309,2624,23985,Tag0,unknown
1545011289340,0,-108,-2.3730468750000002E-5,34,38,36,313564,67925,27597,8311,4623,3309,2624,23985,Tag0,unknown
1545011289340,0,81,1.77978515625E-5,34,38,36,313564,67925,27597,8311,4623,3309,2624,23985,Tag0,unknown
1545011289341,0,-286,-6.2841796875E-5,34,38,36,313564,67925,27597,8311,4623,3309,2624,23985,Tag0,unknown
1545011289341,0,-308,-6.767578125E-5,34,38,36,313564,67925,27597,8311,4623,3309,2624,23985,Tag0,unknown
1545011289341,0,51,1.1206054687499999E-5,34,38,36,313564,67925,27597,8311,4623,3309,2624,23985,Tag0,unknown
1545011289341,0,-119,-2.6147460937500004E-5,34,38,36,313564,67925,27597,8311,4623,3309,2624,23985,Tag0,unknown
1545011289341,0,85,1.86767578125E-5,34,38,36,313564,67925,27597,8311,4623,3309,2624,23985,Tag0,unknown
1545011289342,0,-268,-5.8886718750000006E-5,34,38,36,313564,67925,27597,8311,4623,3309,2624,23985,Tag0,unknown
1545011289342,0,-289,-6.35009765625E-5,34,38,36,313564,67925,27597,8311,4623,3309,2624,23985,Tag0,unknown
1545011289361,0,66,1.4501953125E-5,34,38,36,313564,67925,27597,8311,4623,3309,2624,23985,Tag0,unknown
1545011289363,0,-89,-1.95556640625E-5,34,38,36,313564,67925,27597,8311,4623,3309,2624,23985,Tag0,unknown
1545011289366,0,-110,-2.4169921875E-5,34,38,36,313564,67925,27597,8311,4623,3309,2624,23985,Tag0,unknown
1545011289366,0,43,9.448242187500001E-6,34,38,36,313564,67925,27597,8311,4623,3309,2624,23985,Tag0,unknown
1545011289367,0,-266,-5.8447265625E-5,34,38,36,313564,67925,27597,8311,4623,3309,2624,23985,Tag0,unknown
1545011289367,0,42,9.228515625000002E-6,34,38,36,313564,67925,27597,8311,4623,3309,2624,23985,Tag0,unknown
1545011289367,0,125,2.74658203125E-5,34,38,36,313564,67925,27597,8311,4623,3309,2624,23985,Tag0,unknown
1545011289368,0,101,2.2192382812500002E-5,34,38,36,313564,67925,27597,8311,4623,3309,2624,23985,Tag0,unknown
1545011289374,0,6,1.318359375E-6,34,38,36,313564,67925,27597,8311,4623,3309,2624,23985,Tag0,unknown
1545011289375,0,-291,-6.39404296875E-5,34,38,36,313564,67925,27597,8311,4623,3309,2624,23985,Tag0,unknown
1545011289375,0,32,7.03125E-6,34,38,36,313564,67925,27597,8311,4623,3309,2624,23985,Tag0,unknown
1545011289375,0,-119,-2.6147460937500004E-5,34,38,36,313564,67925,27597,8311,4623,3309,2624,23985,Tag0,unknown
1545011289391,0,-122,-2.6806640625E-5,34,38,36,313564,67925,27597,8311,4623,3309,2624,23985,Tag0,unknown
1545011289391,0,25,5.4931640625E-6,34,38,36,313564,67925,27597,8311,4623,3309,2624,23985,Tag0,unknown
1545011289391,0,-311,-6.833496093750001E-5,34,38,36,313564,67925,27597,8311,4623,3309,2624,23985,Tag0,unknown
1545011289392,0,-276,-6.064453125E-5,34,38,36,313564,67925,27597,8311,4623,3309,2624,23985,Tag0,unknown
1545011289394,0,81,1.77978515625E-5,34,38,36,313564,67925,27597,8311,4623,3309,2624,23985,Tag0,unknown
1545011289395,0,89,1.95556640625E-5,34,38,36,313564,67925,27597,8311,4623,3309,2624,23985,Tag0,unknown
1545011289395,0,0,0.0,34,38,36,313564,67925,27597,8311,4623,3309,2624,23985,Tag0,unknown
1545011289395,0,-329,-7.229003906250001E-5,34,38,36,313564,67925,27597,8311,4623,3309,2624,23985,Tag0,unknown
1545011289395,0,-292,-6.416015625000001E-5,34,38,36,313564,67925,27597,8311,4623,3309,2624,23985,Tag0,unknown
1545011289395,0,72,1.58203125E-5,34,38,36,313564,67925,27597,8311,4623,3309,2624,23985,Tag0,unknown
1545011289396,0,91,1.99951171875E-5,34,38,36,313564,67925,27597,8311,4623,3309,2624,23985,Tag0,unknown
1545011289396,0,-264,-5.80078125E-5,34,38,36,313564,67925,27597,8311,4623,3309,2624,23985,Tag0,unknown
1545011289396,0,-348,-7.646484375E-5,34,38,36,313564,67925,27597,8311,4623,3309,2624,23985,Tag0,unknown
1545011289406,0,-324,-7.119140625E-5,34,38,36,313564,67925,27597,8311,4623,3309,2624,23985,Tag0,unknown
1545011289406,0,40,8.7890625E-6,34,38,36,313564,67925,27597,8311,4623,3309,2624,23985,Tag0,unknown
1545011289406,0,87,1.91162109375E-5,34,38,36,313564,67925,27597,8311,4623,3309,2624,23985,Tag0,unknown
1545011289407,0,11,2.4169921875E-6,34,38,36,313564,67925,27597,8311,4623,3309,2624,23985,Tag0,unknown
1545011289407,0,-321,-7.053222656250001E-5,34,38,36,313564,67925,27597,8311,4623,3309,2624,23985,Tag0,unknown
1545011289407,0,-299,-6.56982421875E-5,34,38,36,313564,67925,27597,8311,4623,3309,2624,23985,Tag0,unknown
1545011289407,0,61,1.34033203125E-5,34,38,36,313564,67925,27597,8311,4623,3309,2624,23985,Tag0,unknown
1545011289407,0,119,2.6147460937500004E-5,34,38,36,313564,67925,27597,8311,4623,3309,2624,23985,Tag0,unknown
1545011289429,0,41,9.008789062499999E-6,34,38,36,313564,67925,27597,8311,4623,3309,2624,23985,Tag0,unknown
1545011289429,0,-324,-7.119140625E-5,34,38,36,313564,67925,27597,8311,4623,3309,2624,23985,Tag0,unknown
1545011289430,0,-332,-7.294921875E-5,34,38,36,313564,67925,27597,8311,4623,3309,2624,23985,Tag0,unknown
1545011289431,0,21,4.614257812500001E-6,34,38,36,313564,67925,27597,8311,4623,3309,2624,23985,Tag0,unknown
1545011289431,0,97,2.13134765625E-5,34,38,36,313564,67925,27597,8311,4623,3309,2624,23985,Tag0,unknown
1545011289431,0,42,9.228515625000002E-6,34,38,36,313564,67925,27597,8311,4623,3309,2624,23985,Tag0,unknown
1545011289435,0,-309,-6.78955078125E-5,34,38,36,313564,67925,27597,8311,4623,3309,2624,23985,Tag0,unknown
1545011289436,0,-311,-6.833496093750001E-5,34,38,36,313564,67925,27597,8311,4623,3309,2624,23985,Tag0,unknown
1545011289436,0,59,1.29638671875E-5,34,38,36,313564,67925,27597,8311,4623,3309,2624,23985,Tag0,unknown
1545011289436,0,-102,-2.2412109374999998E-5,34,38,36,313564,67925,27597,8311,4623,3309,2624,23985,Tag0,unknown
1545011289436,0,105,2.30712890625E-5,34,38,36,313564,67925,27597,8311,4623,3309,2624,23985,Tag0,unknown
1545011289437,0,-269,-5.9106445312499996E-5,34,38,36,313564,67925,27597,8311,4623,3309,2624,23985,Tag0,unknown
1545011289440,0,-311,-6.833496093750001E-5,34,38,36,313564,67925,27597,8311,4623,3309,2624,23985,Tag0,unknown
1545011289440,0,36,7.91015625E-6,34,38,36,313564,67925,27597,8311,4623,3309,2624,23985,Tag0,unknown
1545011289440,0,-118,-2.5927734375E-5,34,38,36,313564,67925,27597,8311,4623,3309,2624,23985,Tag0,unknown
1545011289441,0,117,2.5708007812499998E-5,34,38,36,313564,67925,27597,8311,4623,3309,2624,23985,Tag0,unknown
1545011289441,0,21,4.614257812500001E-6,34,38,36,313564,67925,27597,8311,4623,3309,2624,23985,Tag0,unknown
1545011289441,0,-281,-6.17431640625E-5,34,38,36,313564,67925,27597,8311,4623,3309,2624,23985,Tag0,unknown
1545011289461,0,42,9.228515625000002E-6,34,38,36,313564,67925,27597,8311,4623,3309,2624,23985,Tag0,unknown
1545011289462,0,-111,-2.43896484375E-5,34,38,36,313564,67925,27597,8311,4623,3309,2624,23985,Tag0,unknown
1545011289462,0,-124,-2.724609375E-5,34,38,36,313564,67925,27597,8311,4623,3309,2624,23985,Tag0,unknown
1545011289463,0,26,5.712890625E-6,34,38,36,313564,67925,27597,8311,4623,3309,2624,23985,Tag0,unknown
1545011289463,0,-301,-6.613769531250001E-5,34,38,36,313564,67925,27597,8311,4623,3309,2624,23985,Tag0,unknown
1545011289463,0,-263,-5.7788085937500005E-5,34,38,36,313564,67925,27597,8311,4623,3309,2624,23985,Tag0,unknown
1545011289463,0,91,1.99951171875E-5,34,38,36,313564,67925,27597,8311,4623,3309,2624,23985,Tag0,unknown
1545011289463,0,102,2.2412109374999998E-5,34,38,36,313564,67925,27597,8311,4623,3309,2624,23985,Tag0,unknown
1545011289464,0,11,2.4169921875E-6,34,38,36,313564,67925,27597,8311,4623,3309,2624,23985,Tag0,unknown
1545011289473,0,-302,-6.6357421875E-5,34,38,36,313564,67925,27597,8311,4623,3309,2624,23985,Tag0,unknown
1545011289474,0,19,4.1748046875E-6,34,38,36,313564,67925,27597,8311,4623,3309,2624,23985,Tag0,unknown
1545011289475,0,-110,-2.4169921875E-5,34,38,36,313564,67925,27597,8311,4623,3309,2624,23985,Tag0,unknown
1545011289478,0,-99,-2.1752929687500003E-5,34,38,36,313564,67925,27597,8311,4623,3309,2624,23985,Tag0,unknown
1545011289478,0,50,1.0986328125E-5,34,38,36,313564,67925,27597,8311,4623,3309,2624,23985,Tag0,unknown
1545011289478,0,-305,-6.70166015625E-5,34,38,36,313564,67925,27597,8311,4623,3309,2624,23985,Tag0,unknown
1545011289478,0,-282,-6.1962890625E-5,34,38,36,313564,67925,27597,8311,4623,3309,2624,23985,Tag0,unknown
1545011289490,0,80,1.7578125E-5,34,38,36,313564,67925,27597,8311,4623,3309,2624,23985,Tag0,unknown
1545011289490,0,114,2.5048828125000003E-5,34,38,36,313564,67925,27597,8311,4623,3309,2624,23985,Tag0,unknown
1545011289490,0,34,7.4707031250000005E-6,34,38,36,313564,67925,27597,8311,4623,3309,2624,23985,Tag0,unknown
1545011289490,0,-301,-6.613769531250001E-5,34,38,36,313564,67925,27597,8311,4623,3309,2624,23985,Tag0,unknown
1545011289491,0,-275,-6.04248046875E-5,34,38,36,313564,67925,27597,8311,4623,3309,2624,23985,Tag0,unknown
1545011289491,0,96,2.109375E-5,34,38,36,313564,67925,27597,8311,4623,3309,2624,23985,Tag0,unknown
1545011289491,0,-116,-2.548828125E-5,34,38,36,313564,67925,27597,8311,4623,3309,2624,23985,Tag0,unknown
1545011289492,0,60,1.318359375E-5,34,38,36,313564,67925,27597,8311,4623,3309,2624,23985,Tag0,unknown
1545011289492,0,-297,-6.525878906250001E-5,34,38,36,313564,67925,27597,8311,4623,3309,2624,23985,Tag0,unknown
1545011289505,0,-298,-6.5478515625E-5,34,38,36,313564,67925,27597,8311,4623,3309,2624,23985,Tag0,unknown
1545011289506,0,67,1.4721679687500002E-5,34,38,36,313564,67925,27597,8311,4623,3309,2624,23985,Tag0,unknown
1545011289506,0,-120,-2.63671875E-5,34,38,36,313564,67925,27597,8311,4623,3309,2624,23985,Tag0,unknown
1545011289506,0,75,1.64794921875E-5,34,38,36,313564,67925,27597,8311,4623,3309,2624,23985,Tag0,unknown
1545011289506,0,-268,-5.8886718750000006E-5,34,38,36,313564,67925,27597,8311,4623,3309,2624,23985,Tag0,unknown
1545011289509,0,-263,-5.7788085937500005E-5,34,38,36,313564,67925,27597,8311,4623,3309,2624,23985,Tag0,unknown
1545011289510,0,97,2.13134765625E-5,34,38,36,313564,67925,27597,8311,4623,3309,2624,23985,Tag0,unknown
1545011289510,0,-86,-1.8896484375000003E-5,34,38,36,313564,67925,27597,8311,4623,3309,2624,23985,Tag0,unknown
1545011289525,0,105,2.30712890625E-5,34,38,36,313564,67925,27597,8311,4623,3309,2624,23985,Tag0,unknown
1545011289525,0,-275,-6.04248046875E-5,34,38,36,313564,67925,27597,8311,4623,3309,2624,23985,Tag0,unknown
1545011289525,0,-313,-6.87744140625E-5,34,38,36,313564,67925,27597,8311,4623,3309,2624,23985,Tag0,unknown
1545011289525,0,33,7.2509765625E-6,34,38,36,313564,67925,27597,8311,4623,3309,2624,23985,Tag0,unknown
1545011289525,0,-123,-2.70263671875E-5,34,38,36,313564,67925,27597,8311,4623,3309,2624,23985,Tag0,unknown
1545011289526,0,109,2.39501953125E-5,34,38,36,313564,67925,27597,8311,4623,3309,2624,23985,Tag0,unknown
1545011289526,0,8,1.7578125E-6,34,38,36,313564,67925,27597,8311,4623,3309,2624,23985,Tag0,unknown
1545011289526,0,-282,-6.1962890625E-5,34,38,36,313564,67925,27597,8311,4623,3309,2624,23985,Tag0,unknown
1545011289526,0,55,1.20849609375E-5,34,38,36,313564,67925,27597,8311,4623,3309,2624,23985,Tag0,unknown
1545011289527,0,-93,-2.04345703125E-5,34,38,36,313564,67925,27597,8311,4623,3309,2624,23985,Tag0,unknown
1545011289592,0,-101,-2.2192382812500002E-5,34,38,36,313564,67925,27597,8311,4623,3309,2624,23985,Tag0,unknown
1545011289593,0,53,1.1645507812500002E-5,34,38,36,313564,67925,27597,8311,4623,3309,2624,23985,Tag0,unknown
1545011289660,0,-269,-5.9106445312499996E-5,34,38,36,313564,67925,27597,8311,4623,3309,2624,23985,Tag0,unknown
1545011289681,0,36,7.91015625E-6,34,38,36,313564,67925,27597,8311,4623,3309,2624,23985,Tag0,unknown
1545011289711,0,-121,-2.6586914062500003E-5,34,38,36,313564,67925,27597,8311,4623,3309,2624,23985,Tag0,unknown
1545011289711,0,-128,-2.8125E-5,34,38,36,313564,67925,27597,8311,4623,3309,2624,23985,Tag0,unknown
1545011289711,0,29,6.3720703125E-6,34,38,36,313564,67925,27597,8311,4623,3309,2624,23985,Tag0,unknown
1545011289711,0,-290,-6.3720703125E-5,34,38,36,313564,67925,27597,8311,4623,3309,2624,23985,Tag0,unknown
1545011289712,0,7,1.5380859375E-6,34,38,36,313564,67925,27597,8311,4623,3309,2624,23985,Tag0,unknown
1545011289712,0,108,2.3730468750000002E-5,34,38,36,313564,67925,27597,8311,4623,3309,2624,23985,Tag0,unknown
1545011289712,0,123,2.70263671875E-5,34,38,36,313564,67925,27597,8311,4623,3309,2624,23985,Tag0,unknown
1545011289712,0,27,5.9326171875000005E-6,34,38,36,313564,67925,27597,8311,4623,3309,2624,23985,Tag0,unknown
1545011289712,0,-310,-6.8115234375E-5,34,38,36,313564,67925,27597,8311,4623,3309,2624,23985,Tag0,unknown
1545011289712,0,-289,-6.35009765625E-5,34,38,36,313564,67925,27597,8311,4623,3309,2624,23985,Tag0,unknown
1545011289713,0,61,1.34033203125E-5,34,38,36,313564,67925,27597,8311,4623,3309,2624,23985,Tag0,unknown
1545011289713,0,88,1.93359375E-5,34,38,36,313564,67925,27597,8311,4623,3309,2624,23985,Tag0,unknown
1545011289713,0,0,0.0,34,38,36,313564,67925,27597,8311,4623,3309,2624,23985,Tag0,unknown
1545011289713,0,-354,-7.778320312500001E-5,34,38,36,313564,67925,27597,8311,4623,3309,2624,23985,Tag0,unknown
1545011289713,0,-333,-7.316894531249999E-5,34,38,36,313564,67925,27597,8311,4623,3309,2624,23985,Tag0,unknown
1545011289714,0,39,8.5693359375E-6,34,38,36,313564,67925,27597,8311,4623,3309,2624,23985,Tag0,unknown
1545011289714,0,91,1.99951171875E-5,34,38,36,313564,67925,27597,8311,4623,3309,2624,23985,Tag0,unknown
1545011289714,0,8,1.7578125E-6,34,38,36,313564,67925,27597,8311,4623,3309,2624,23985,Tag0,unknown
1545011289714,0,-356,-7.822265625E-5,34,38,36,313564,67925,27597,8311,4623,3309,2624,23985,Tag0,unknown
1545011289714,0,-362,-7.954101562500001E-5,34,38,36,313564,67925,27597,8311,4623,3309,2624,23985,Tag0,unknown
1545011289715,0,4,8.7890625E-7,34,38,36,313564,67925,27597,8311,4623,3309,2624,23985,Tag0,unknown
1545011289726,0,75,1.64794921875E-5,34,38,36,313564,67925,27597,8311,4623,3309,2624,23985,Tag0,unknown
1545011289726,0,-259,-5.69091796875E-5,34,38,36,313564,67925,27597,8311,4623,3309,2624,23985,Tag0,unknown
1545011289726,0,-372,-8.173828125E-5,34,38,36,313564,67925,27597,8311,4623,3309,2624,23985,Tag0,unknown
1545011289726,0,-377,-8.28369140625E-5,34,38,36,313564,67925,27597,8311,4623,3309,2624,23985,Tag0,unknown
1545011289727,0,-270,-5.9326171875E-5,34,38,36,313564,67925,27597,8311,4623,3309,2624,23985,Tag0,unknown
1545011289727,0,49,1.07666015625E-5,34,38,36,313564,67925,27597,8311,4623,3309,2624,23985,Tag0,unknown
1545011289727,0,-284,-6.240234375E-5,34,38,36,313564,67925,27597,8311,4623,3309,2624,23985,Tag0,unknown
1545011289727,0,-153,-3.3618164062500004E-5,34,38,36,313564,67925,27597,8311,4623,3309,2624,23985,Tag0,unknown
1545011289727,0,-173,-3.80126953125E-5,34,38,36,313564,67925,27597,8311,4623,3309,2624,23985,Tag0,unknown
1545011289728,0,-314,-6.8994140625E-5,34,38,36,313564,67925,27597,8311,4623,3309,2624,23985,Tag0,unknown
1545011289728,0,52,1.142578125E-5,34,38,36,313564,67925,27597,8311,4623,3309,2624,23985,Tag0,unknown
1545011289728,0,19,4.1748046875E-6,34,38,36,313564,67925,27597,8311,4623,3309,2624,23985,Tag0,unknown
1545011289728,0,-334,-7.338867187500001E-5,34,38,36,313564,67925,27597,8311,4623,3309,2624,23985,Tag0,unknown
1545011289728,0,-355,-7.80029296875E-5,34,38,36,313564,67925,27597,8311,4623,3309,2624,23985,Tag0,unknown
1545011289729,0,-264,-5.80078125E-5,34,38,36,313564,67925,27597,8311,4623,3309,2624,23985,Tag0,unknown
1545011289729,0,80,1.7578125E-5,34,38,36,313564,67925,27597,8311,4623,3309,2624,23985,Tag0,unknown
1545011289729,0,43,9.448242187500001E-6,34,38,36,313564,67925,27597,8311,4623,3309,2624,23985,Tag0,unknown
1545011289729,0,-314,-6.8994140625E-5,34,38,36,313564,67925,27597,8311,4623,3309,2624,23985,Tag0,unknown
1545011289729,0,-358,-7.8662109375E-5,34,38,36,313564,67925,27597,8311,4623,3309,2624,23985,Tag0,unknown
1545011289729,0,-285,-6.26220703125E-5,34,38,36,313564,67925,27597,8311,4623,3309,2624,23985,Tag0,unknown
1545011289730,0,61,1.34033203125E-5,34,38,36,313564,67925,27597,8311,4623,3309,2624,23985,Tag0,unknown
1545011289730,0,34,7.4707031250000005E-6,34,38,36,313564,67925,27597,8311,4623,3309,2624,23985,Tag0,unknown
1545011289730,0,-327,-7.18505859375E-5,34,38,36,313564,67925,27597,8311,4623,3309,2624,23985,Tag0,unknown
1545011289730,0,-381,-8.371582031250001E-5,34,38,36,313564,67925,27597,8311,4623,3309,2624,23985,Tag0,unknown
1545011289731,0,-318,-6.9873046875E-5,34,38,36,313564,67925,27597,8311,4623,3309,2624,23985,Tag0,unknown
1545011289731,0,40,8.7890625E-6,34,38,36,313564,67925,27597,8311,4623,3309,2624,23985,Tag0,unknown
1545011289731,0,39,8.5693359375E-6,34,38,36,313564,67925,27597,8311,4623,3309,2624,23985,Tag0,unknown
1545011289731,0,-313,-6.87744140625E-5,34,38,36,313564,67925,27597,8311,4623,3309,2624,23985,Tag0,unknown
1545011289731,0,-133,-2.92236328125E-5,34,38,36,313564,67925,27597,8311,4623,3309,2624,23985,Tag0,unknown
1545011289731,0,-343,-7.53662109375E-5,34,38,36,313564,67925,27597,8311,4623,3309,2624,23985,Tag0,unknown
1545011289732,0,27,5.9326171875000005E-6,34,38,36,313564,67925,27597,8311,4623,3309,2624,23985,Tag0,unknown
1545011289732,0,55,1.20849609375E-5,34,38,36,313564,67925,27597,8311,4623,3309,2624,23985,Tag0,unknown
1545011289732,0,-281,-6.17431640625E-5,34,38,36,313564,67925,27597,8311,4623,3309,2624,23985,Tag0,unknown
1545011289732,0,-348,-7.646484375E-5,34,38,36,313564,67925,27597,8311,4623,3309,2624,23985,Tag0,unknown
1545011289732,0,-312,-6.85546875E-5,34,38,36,313564,67925,27597,8311,4623,3309,2624,23985,Tag0,unknown
1545011289733,0,52,1.142578125E-5,34,38,36,313564,67925,27597,8311,4623,3309,2624,23985,Tag0,unknown
1545011289733,0,98,2.1533203125E-5,34,38,36,313564,67925,27597,8311,4623,3309,2624,23985,Tag0,unknown
1545011289733,0,22,4.833984375E-6,34,38,36,313564,67925,27597,8311,4623,3309,2624,23985,Tag0,unknown
1545011289733,0,-324,-7.119140625E-5,34,38,36,313564,67925,27597,8311,4623,3309,2624,23985,Tag0,unknown
1545011289740,0,-317,-6.96533203125E-5,34,38,36,313564,67925,27597,8311,4623,3309,2624,23985,Tag0,unknown
1545011289740,0,35,7.6904296875E-6,34,38,36,313564,67925,27597,8311,4623,3309,2624,23985,Tag0,unknown
1545011289740,0,83,1.82373046875E-5,34,38,36,313564,67925,27597,8311,4623,3309,2624,23985,Tag0,unknown
1545011289741,0,11,2.4169921875E-6,34,38,36,313564,67925,27597,8311,4623,3309,2624,23985,Tag0,unknown
1545011289741,0,-332,-7.294921875E-5,34,38,36,313564,67925,27597,8311,4623,3309,2624,23985,Tag0,unknown
1545011289741,0,-327,-7.18505859375E-5,34,38,36,313564,67925,27597,8311,4623,3309,2624,23985,Tag0,unknown
1545011289741,0,39,8.5693359375E-6,34,38,36,313564,67925,27597,8311,4623,3309,2624,23985,Tag0,unknown
1545011289741,0,108,2.3730468750000002E-5,34,38,36,313564,67925,27597,8311,4623,3309,2624,23985,Tag0,unknown
1545011289742,0,44,9.66796875E-6,34,38,36,313564,67925,27597,8311,4623,3309,2624,23985,Tag0,unknown
1545011289742,0,-311,-6.833496093750001E-5,34,38,36,313564,67925,27597,8311,4623,3309,2624,23985,Tag0,unknown
1545011289742,0,-324,-7.119140625E-5,34,38,36,313564,67925,27597,8311,4623,3309,2624,23985,Tag0,unknown
1545011289742,0,26,5.712890625E-6,34,38,36,313564,67925,27597,8311,4623,3309,2624,23985,Tag0,unknown
1545011289743,0,103,2.26318359375E-5,34,38,36,313564,67925,27597,8311,4623,3309,2624,23985,Tag0,unknown
1545011289743,0,55,1.20849609375E-5,34,38,36,313564,67925,27597,8311,4623,3309,2624,23985,Tag0,unknown
1545011289743,0,-298,-6.5478515625E-5,34,38,36,313564,67925,27597,8311,4623,3309,2624,23985,Tag0,unknown
1545011289743,0,-321,-7.053222656250001E-5,34,38,36,313564,67925,27597,8311,4623,3309,2624,23985,Tag0,unknown
1545011289743,0,33,7.2509765625E-6,34,38,36,313564,67925,27597,8311,4623,3309,2624,23985,Tag0,unknown
1545011289744,0,124,2.724609375E-5,34,38,36,313564,67925,27597,8311,4623,3309,2624,23985,Tag0,unknown
1545011289744,0,88,1.93359375E-5,34,38,36,313564,67925,27597,8311,4623,3309,2624,23985,Tag0,unknown
1545011289744,0,-278,-6.108398437500001E-5,34,38,36,313564,67925,27597,8311,4623,3309,2624,23985,Tag0,unknown
1545011289744,0,-331,-7.272949218750001E-5,34,38,36,313564,67925,27597,8311,4623,3309,2624,23985,Tag0,unknown
1545011289744,0,-262,-5.7568359375E-5,34,38,36,313564,67925,27597,8311,4623,3309,2624,23985,Tag0,unknown
1545011289745,0,99,2.1752929687500003E-5,34,38,36,313564,67925,27597,8311,4623,3309,2624,23985,Tag0,unknown
1545011289745,0,87,1.91162109375E-5,34,38,36,313564,67925,27597,8311,4623,3309,2624,23985,Tag0,unknown
1545011289745,0,-277,-6.0864257812500005E-5,34,38,36,313564,67925,27597,8311,4623,3309,2624,23985,Tag0,unknown
1545011289745,0,-338,-7.426757812499999E-5,34,38,36,313564,67925,27597,8311,4623,3309,2624,23985,Tag0,unknown
1545011289745,0,-265,-5.82275390625E-5,34,38,36,313564,67925,27597,8311,4623,3309,2624,23985,Tag0,unknown
1545011289757,0,103,2.26318359375E-5,34,38,36,313564,67925,27597,8311,4623,3309,2624,23985,Tag0,unknown
1545011289757,0,93,2.04345703125E-5,34,38,36,313564,67925,27597,8311,4623,3309,2624,23985,Tag0,unknown
1545011289757,0,-277,-6.0864257812500005E-5,34,38,36,313564,67925,27597,8311,4623,3309,2624,23985,Tag0,unknown
1545011289757,0,-350,-7.6904296875E-5,34,38,36,313564,67925,27597,8311,4623,3309,2624,23985,Tag0,unknown
1545011289758,0,-294,-6.4599609375E-5,34,38,36,313564,67925,27597,8311,4623,3309,2624,23985,Tag0,unknown
1545011289758,0,81,1.77978515625E-5,34,38,36,313564,67925,27597,8311,4623,3309,2624,23985,Tag0,unknown
1545011289758,0,106,2.3291015625000003E-5,34,38,36,313564,67925,27597,8311,4623,3309,2624,23985,Tag0,unknown
1545011289758,0,24,5.2734375E-6,34,38,36,313564,67925,27597,8311,4623,3309,2624,23985,Tag0,unknown
1545011289759,0,-297,-6.525878906250001E-5,34,38,36,313564,67925,27597,8311,4623,3309,2624,23985,Tag0,unknown
1545011289759,0,3,6.591796875E-7,34,38,36,313564,67925,27597,8311,4623,3309,2624,23985,Tag0,unknown
1545011289759,0,123,2.70263671875E-5,34,38,36,313564,67925,27597,8311,4623,3309,2624,23985,Tag0,unknown
1545011289760,0,-86,-1.8896484375000003E-5,34,38,36,313564,67925,27597,8311,4623,3309,2624,23985,Tag0,unknown
1545011289760,0,84,1.8457031250000004E-5,34,38,36,313564,67925,27597,8311,4623,3309,2624,23985,Tag0,unknown
1545011289760,0,-280,-6.15234375E-5,34,38,36,313564,67925,27597,8311,4623,3309,2624,23985,Tag0,unknown
1545011289760,0,-275,-6.04248046875E-5,34,38,36,313564,67925,27597,8311,4623,3309,2624,23985,Tag0,unknown
1545011289760,0,105,2.30712890625E-5,34,38,36,313564,67925,27597,8311,4623,3309,2624,23985,Tag0,unknown
1545011289761,0,-84,-1.8457031250000004E-5,34,38,36,313564,67925,27597,8311,4623,3309,2624,23985,Tag0,unknown
1545011289761,0,106,2.3291015625000003E-5,34,38,36,313564,67925,27597,8311,4623,3309,2624,23985,Tag0,unknown
1545011289761,0,26,5.712890625E-6,34,38,36,313564,67925,27597,8311,4623,3309,2624,23985,Tag0,unknown
1545011289761,0,39,8.5693359375E-6,34,38,36,313564,67925,27597,8311,4623,3309,2624,23985,Tag0,unknown
1545011289762,0,-125,-2.74658203125E-5,34,38,36,313564,67925,27597,8311,4623,3309,2624,23985,Tag0,unknown
1545011289762,0,-80,-1.7578125E-5,34,38,36,313564,67925,27597,8311,4623,3309,2624,23985,Tag0,unknown
1545011289762,0,113,2.48291015625E-5,34,38,36,313564,67925,27597,8311,4623,3309,2624,23985,Tag0,unknown
1545011289767,0,26,5.712890625E-6,34,38,36,313564,67925,27597,8311,4623,3309,2624,23985,Tag0,unknown
1545011289768,0,24,5.2734375E-6,34,38,36,313564,67925,27597,8311,4623,3309,2624,23985,Tag0,unknown
1545011289768,0,124,2.724609375E-5,34,38,36,313564,67925,27597,8311,4623,3309,2624,23985,Tag0,unknown
1545011289768,0,-61,-1.34033203125E-5,34,38,36,313564,67925,27597,8311,4623,3309,2624,23985,Tag0,unknown
1545011289768,0,-123,-2.70263671875E-5,34,38,36,313564,67925,27597,8311,4623,3309,2624,23985,Tag0,unknown
1545011289773,0,28,6.15234375E-6,34,38,36,313564,67925,27597,8311,4623,3309,2624,23985,Tag0,unknown
1545011289773,0,18,3.955078125E-6,34,38,36,313564,67925,27597,8311,4623,3309,2624,23985,Tag0,unknown
1545011289773,0,-126,-2.7685546875E-5,34,38,36,313564,67925,27597,8311,4623,3309,2624,23985,Tag0,unknown
1545011289773,0,-27,-5.9326171875000005E-6,34,38,36,313564,67925,27597,8311,4623,3309,2624,23985,Tag0,unknown
1545011289773,0,-69,-1.51611328125E-5,34,38,36,313564,67925,27597,8311,4623,3309,2624,23985,Tag0,unknown
1545011289773,0,65,1.42822265625E-5,34,38,36,313564,67925,27597,8311,4623,3309,2624,23985,Tag0,unknown
1545011289774,0,5,1.0986328125E-6,34,38,36,313564,67925,27597,8311,4623,3309,2624,23985,Tag0,unknown
1545011289774,0,77,1.69189453125E-5,34,38,36,313564,67925,27597,8311,4623,3309,2624,23985,Tag0,unknown
1545011289794,0,-75,-1.64794921875E-5,34,38,36,313564,67925,27597,8311,4623,3309,2624,23985,Tag0,unknown
1545011289795,0,-93,-2.04345703125E-5,34,38,36,313564,67925,27597,8311,4623,3309,2624,23985,Tag0,unknown
1545011289795,0,57,1.2524414062500001E-5,34,38,36,313564,67925,27597,8311,4623,3309,2624,23985,Tag0,unknown
1545011289796,0,8,1.7578125E-6,34,38,36,313564,67925,27597,8311,4623,3309,2624,23985,Tag0,unknown
1545011289796,0,75,1.64794921875E-5,34,38,36,313564,67925,27597,8311,4623,3309,2624,23985,Tag0,unknown
1545011289796,0,-84,-1.8457031250000004E-5,34,38,36,313564,67925,27597,8311,4623,3309,2624,23985,Tag0,unknown
1545011289796,0,-100,-2.197265625E-5,34,38,36,313564,67925,27597,8311,4623,3309,2624,23985,Tag0,unknown
1545011289799,0,50,1.0986328125E-5,34,38,36,313564,67925,27597,8311,4623,3309,2624,23985,Tag0,unknown
1545011289799,0,-261,-5.73486328125E-5,34,38,36,313564,67925,27597,8311,4623,3309,2624,23985,Tag0,unknown
1545011289800,0,64,1.40625E-5,34,38,36,313564,67925,27597,8311,4623,3309,2624,23985,Tag0,unknown
1545011289800,0,-79,-1.7358398437500003E-5,34,38,36,313564,67925,27597,8311,4623,3309,2624,23985,Tag0,unknown
1545011289806,0,-77,-1.69189453125E-5,34,38,36,313564,67925,27597,8311,4623,3309,2624,23985,Tag0,unknown
1545011289807,0,83,1.82373046875E-5,34,38,36,313564,67925,27597,8311,4623,3309,2624,23985,Tag0,unknown
1545011289807,0,16,3.515625E-6,34,38,36,313564,67925,27597,8311,4623,3309,2624,23985,Tag0,unknown
1545011289807,0,65,1.42822265625E-5,34,38,36,313564,67925,27597,8311,4623,3309,2624,23985,Tag0,unknown
1545011289807,0,-64,-1.40625E-5,34,38,36,313564,67925,27597,8311,4623,3309,2624,23985,Tag0,unknown
1545011289807,0,-25,-5.4931640625E-6,34,38,36,313564,67925,27597,8311,4623,3309,2624,23985,Tag0,unknown
1545011289822,0,-119,-2.6147460937500004E-5,34,38,36,313564,67925,27597,8311,4623,3309,2624,23985,Tag0,unknown
1545011289823,0,34,7.4707031250000005E-6,34,38,36,313564,67925,27597,8311,4623,3309,2624,23985,Tag0,unknown
1545011289823,0,35,7.6904296875E-6,34,38,36,313564,67925,27597,8311,4623,3309,2624,23985,Tag0,unknown
1545011289823,0,-124,-2.724609375E-5,34,38,36,313564,67925,27597,8311,4623,3309,2624,23985,Tag0,unknown
1545011289823,0,-71,-1.56005859375E-5,34,38,36,313564,67925,27597,8311,4623,3309,2624,23985,Tag0,unknown
1545011289823,0,121,2.6586914062500003E-5,34,38,36,313564,67925,27597,8311,4623,3309,2624,23985,Tag0,unknown
1545011289823,0,33,7.2509765625E-6,34,38,36,313564,67925,27597,8311,4623,3309,2624,23985,Tag0,unknown
1545011289824,0,43,9.448242187500001E-6,34,38,36,313564,67925,27597,8311,4623,3309,2624,23985,Tag0,unknown
1545011289839,0,-106,-2.3291015625000003E-5,34,38,36,313564,67925,27597,8311,4623,3309,2624,23985,Tag0,unknown
1545011289842,0,-59,-1.29638671875E-5,34,38,36,313564,67925,27597,8311,4623,3309,2624,23985,Tag0,unknown
1545011289842,0,114,2.5048828125000003E-5,34,38,36,313564,67925,27597,8311,4623,3309,2624,23985,Tag0,unknown
1545011289842,0,4,8.7890625E-7,34,38,36,313564,67925,27597,8311,4623,3309,2624,23985,Tag0,unknown
1545011289843,0,-259,-5.69091796875E-5,34,38,36,313564,67925,27597,8311,4623,3309,2624,23985,Tag0,unknown
1545011289843,0,105,2.30712890625E-5,34,38,36,313564,67925,27597,8311,4623,3309,2624,23985,Tag0,unknown
1545011289843,0,-79,-1.7358398437500003E-5,34,38,36,313564,67925,27597,8311,4623,3309,2624,23985,Tag0,unknown
1545011289843,0,106,2.3291015625000003E-5,34,38,36,313564,67925,27597,8311,4623,3309,2624,23985,Tag0,unknown
1545011289843,0,-260,-5.712890625E-5,34,38,36,313564,67925,27597,8311,4623,3309,2624,23985,Tag0,unknown
1545011289858,0,-275,-6.04248046875E-5,34,38,36,313564,67925,27597,8311,4623,3309,2624,23985,Tag0,unknown
1545011289859,0,83,1.82373046875E-5,34,38,36,313564,67925,27597,8311,4623,3309,2624,23985,Tag0,unknown
1545011289859,0,-83,-1.82373046875E-5,34,38,36,313564,67925,27597,8311,4623,3309,2624,23985,Tag0,unknown
1545011289859,0,-122,-2.6806640625E-5,34,38,36,313564,67925,27597,8311,4623,3309,2624,23985,Tag0,unknown
1545011289859,0,19,4.1748046875E-6,34,38,36,313564,67925,27597,8311,4623,3309,2624,23985,Tag0,unknown
1545011289860,0,-275,-6.04248046875E-5,34,38,36,313564,67925,27597,8311,4623,3309,2624,23985,Tag0,unknown
1545011289860,0,60,1.318359375E-5,34,38,36,313564,67925,27597,8311,4623,3309,2624,23985,Tag0,unknown
1545011289860,0,-109,-2.39501953125E-5,34,38,36,313564,67925,27597,8311,4623,3309,2624,23985,Tag0,unknown
1545011289860,0,118,2.5927734375E-5,34,38,36,313564,67925,27597,8311,4623,3309,2624,23985,Tag0,unknown
1545011289873,0,18,3.955078125E-6,34,38,36,313564,67925,27597,8311,4623,3309,2624,23985,Tag0,unknown
1545011289876,0,-281,-6.17431640625E-5,34,38,36,313564,67925,27597,8311,4623,3309,2624,23985,Tag0,unknown
1545011289876,0,58,1.2744140625E-5,34,38,36,313564,67925,27597,8311,4623,3309,2624,23985,Tag0,unknown
1545011289876,0,-87,-1.91162109375E-5,34,38,36,313564,67925,27597,8311,4623,3309,2624,23985,Tag0,unknown
1545011289876,0,-94,-2.0654296875000002E-5,34,38,36,313564,67925,27597,8311,4623,3309,2624,23985,Tag0,unknown
1545011289877,0,57,1.2524414062500001E-5,34,38,36,313564,67925,27597,8311,4623,3309,2624,23985,Tag0,unknown
1545011289877,0,-257,-5.64697265625E-5,34,38,36,313564,67925,27597,8311,4623,3309,2624,23985,Tag0,unknown
1545011289877,0,53,1.1645507812500002E-5,34,38,36,313564,67925,27597,8311,4623,3309,2624,23985,Tag0,unknown
1545011289888,0,-106,-2.3291015625000003E-5,34,38,36,313564,67925,27597,8311,4623,3309,2624,23985,Tag0,unknown
1545011289888,0,-104,-2.28515625E-5,34,38,36,313564,67925,27597,8311,4623,3309,2624,23985,Tag0,unknown
1545011289889,0,65,1.42822265625E-5,34,38,36,313564,67925,27597,8311,4623,3309,2624,23985,Tag0,unknown
1545011289889,0,3,6.591796875E-7,34,38,36,313564,67925,27597,8311,4623,3309,2624,23985,Tag0,unknown
1545011289889,0,60,1.318359375E-5,34,38,36,313564,67925,27597,8311,4623,3309,2624,23985,Tag0,unknown
1545011289889,0,-79,-1.7358398437500003E-5,34,38,36,313564,67925,27597,8311,4623,3309,2624,23985,Tag0,unknown
1545011289889,0,-69,-1.51611328125E-5,34,38,36,313564,67925,27597,8311,4623,3309,2624,23985,Tag0,unknown
1545011289890,0,76,1.669921875E-5,34,38,36,313564,67925,27597,8311,4623,3309,2624,23985,Tag0,unknown
1545011289908,0,-278,-6.108398437500001E-5,34,38,36,313564,67925,27597,8311,4623,3309,2624,23985,Tag0,unknown
1545011289909,0,0,0.0,34,38,36,313564,67925,27597,8311,4623,3309,2624,23985,Tag0,unknown
1545011289909,0,113,2.48291015625E-5,34,38,36,313564,67925,27597,8311,4623,3309,2624,23985,Tag0,unknown
1545011289912,0,-105,-2.30712890625E-5,34,38,36,313564,67925,27597,8311,4623,3309,2624,23985,Tag0,unknown
1545011289912,0,59,1.29638671875E-5,34,38,36,313564,67925,27597,8311,4623,3309,2624,23985,Tag0,unknown
1545011289912,0,-280,-6.15234375E-5,34,38,36,313564,67925,27597,8311,4623,3309,2624,23985,Tag0,unknown
1545011289913,0,5,1.0986328125E-6,34,38,36,313564,67925,27597,8311,4623,3309,2624,23985,Tag0,unknown
1545011289913,0,123,2.70263671875E-5,34,38,36,313564,67925,27597,8311,4623,3309,2624,23985,Tag0,unknown
1545011289913,0,-78,-1.7138671875E-5,34,38,36,313564,67925,27597,8311,4623,3309,2624,23985,Tag0,unknown
1545011289922,0,101,2.2192382812500002E-5,34,38,36,313564,67925,27597,8311,4623,3309,2624,23985,Tag0,unknown
1545011289922,0,-258,-5.6689453125000004E-5,34,38,36,313564,67925,27597,8311,4623,3309,2624,23985,Tag0,unknown
1545011289923,0,-268,-5.8886718750000006E-5,34,38,36,313564,67925,27597,8311,4623,3309,2624,23985,Tag0,unknown
1545011289923,0,75,1.64794921875E-5,34,38,36,313564,67925,27597,8311,4623,3309,2624,23985,Tag0,unknown
1545011289923,0,-126,-2.7685546875E-5,34,38,36,313564,67925,27597,8311,4623,3309,2624,23985,Tag0,unknown
1545011289923,0,61,1.34033203125E-5,34,38,36,313564,67925,27597,8311,4623,3309,2624,23985,Tag0,unknown
1545011289923,0,-289,-6.35009765625E-5,34,38,36,313564,67925,27597,8311,4623,3309,2624,23985,Tag0,unknown
1545011289923,0,-295,-6.48193359375E-5,34,38,36,313564,67925,27597,8311,4623,3309,2624,23985,Tag0,unknown
1545011289940,0,55,1.20849609375E-5,34,38,36,313564,67925,27597,8311,4623,3309,2624,23985,Tag0,unknown
1545011289940,0,-127,-2.79052734375E-5,34,38,36,313564,67925,27597,8311,4623,3309,2624,23985,Tag0,unknown
1545011289941,0,83,1.82373046875E-5,34,38,36,313564,67925,27597,8311,4623,3309,2624,23985,Tag0,unknown
1545011289941,0,-275,-6.04248046875E-5,34,38,36,313564,67925,27597,8311,4623,3309,2624,23985,Tag0,unknown
1545011289941,0,-305,-6.70166015625E-5,34,38,36,313564,67925,27597,8311,4623,3309,2624,23985,Tag0,unknown
1545011289941,0,33,7.2509765625E-6,34,38,36,313564,67925,27597,8311,4623,3309,2624,23985,Tag0,unknown
1545011289944,0,117,2.5708007812499998E-5,34,38,36,313564,67925,27597,8311,4623,3309,2624,23985,Tag0,unknown
1545011289944,0,75,1.64794921875E-5,34,38,36,313564,67925,27597,8311,4623,3309,2624,23985,Tag0,unknown
1545011289944,0,-274,-6.0205078124999997E-5,34,38,36,313564,67925,27597,8311,4623,3309,2624,23985,Tag0,unknown
1545011289945,0,-299,-6.56982421875E-5,34,38,36,313564,67925,27597,8311,4623,3309,2624,23985,Tag0,unknown
1545011289956,0,42,9.228515625000002E-6,34,38,36,313564,67925,27597,8311,4623,3309,2624,23985,Tag0,unknown
1545011289957,0,-115,-2.52685546875E-5,34,38,36,313564,67925,27597,8311,4623,3309,2624,23985,Tag0,unknown
1545011289957,0,114,2.5048828125000003E-5,34,38,36,313564,67925,27597,8311,4623,3309,2624,23985,Tag0,unknown
1545011289957,0,0,0.0,34,38,36,313564,67925,27597,8311,4623,3309,2624,23985,Tag0,unknown
1545011289957,0,-312,-6.85546875E-5,34,38,36,313564,67925,27597,8311,4623,3309,2624,23985,Tag0,unknown
1545011289958,0,6,1.318359375E-6,34,38,36,313564,67925,27597,8311,4623,3309,2624,23985,Tag0,unknown
1545011289958,0,102,2.2412109374999998E-5,34,38,36,313564,67925,27597,8311,4623,3309,2624,23985,Tag0,unknown
1545011289958,0,102,2.2412109374999998E-5,34,38,36,313564,67925,27597,8311,4623,3309,2624,23985,Tag0,unknown
1545011289972,0,25,5.4931640625E-6,34,38,36,313564,67925,27597,8311,4623,3309,2624,23985,Tag0,unknown
1545011289972,0,-283,-6.218261718750001E-5,34,38,36,313564,67925,27597,8311,4623,3309,2624,23985,Tag0,unknown
1545011289973,0,23,5.0537109375E-6,34,38,36,313564,67925,27597,8311,4623,3309,2624,23985,Tag0,unknown
1545011289973,0,-126,-2.7685546875E-5,34,38,36,313564,67925,27597,8311,4623,3309,2624,23985,Tag0,unknown
1545011289973,0,-119,-2.6147460937500004E-5,34,38,36,313564,67925,27597,8311,4623,3309,2624,23985,Tag0,unknown
1545011289976,0,37,8.1298828125E-6,34,38,36,313564,67925,27597,8311,4623,3309,2624,23985,Tag0,unknown
1545011289976,0,-294,-6.4599609375E-5,34,38,36,313564,67925,27597,8311,4623,3309,2624,23985,Tag0,unknown
1545011289976,0,3,6.591796875E-7,34,38,36,313564,67925,27597,8311,4623,3309,2624,23985,Tag0,unknown
1545011289988,0,123,2.70263671875E-5,34,38,36,313564,67925,27597,8311,4623,3309,2624,23985,Tag0,unknown
1545011289988,0,-102,-2.2412109374999998E-5,34,38,36,313564,67925,27597,8311,4623,3309,2624,23985,Tag0,unknown
1545011289988,0,70,1.5380859375E-5,34,38,36,313564,67925,27597,8311,4623,3309,2624,23985,Tag0,unknown
1545011289988,0,-259,-5.69091796875E-5,34,38,36,313564,67925,27597,8311,4623,3309,2624,23985,Tag0,unknown
1545011289989,0,35,7.6904296875E-6,34,38,36,313564,67925,27597,8311,4623,3309,2624,23985,Tag0,unknown
1545011289989,0,-106,-2.3291015625000003E-5,34,38,36,313564,67925,27597,8311,4623,3309,2624,23985,Tag0,unknown
1545011289989,0,-71,-1.56005859375E-5,34,38,36,313564,67925,27597,8311,4623,3309,2624,23985,Tag0,unknown
1545011289989,0,90,1.9775390625E-5,34,38,36,313564,67925,27597,8311,4623,3309,2624,23985,Tag0,unknown
1545011290006,0,-264,-5.80078125E-5,34,38,36,313564,67925,27597,8311,4623,3309,2624,23985,Tag0,unknown
1545011290007,0,6,1.318359375E-6,34,38,36,313564,67925,27597,8311,4623,3309,2624,23985,Tag0,unknown
1545011290007,0,121,2.6586914062500003E-5,34,38,36,313564,67925,27597,8311,4623,3309,2624,23985,Tag0,unknown
1545011290010,0,-78,-1.7138671875E-5,34,38,36,313564,67925,27597,8311,4623,3309,2624,23985,Tag0,unknown
1545011290011,0,98,2.1533203125E-5,34,38,36,313564,67925,27597,8311,4623,3309,2624,23985,Tag0,unknown
1545011290026,0,-257,-5.64697265625E-5,41,47,36,299995,30917,11388,10837,7313,5903,2501,13508,Tag0,unknown
1545011290027,0,4,8.7890625E-7,41,47,36,299995,30917,11388,10837,7313,5903,2501,13508,Tag0,unknown
1545011290028,0,118,2.5927734375E-5,41,47,36,299995,30917,11388,10837,7313,5903,2501,13508,Tag0,unknown
1545011290028,0,-76,-1.669921875E-5,41,47,36,299995,30917,11388,10837,7313,5903,2501,13508,Tag0,unknown
1545011290028,0,91,1.99951171875E-5,41,47,36,299995,30917,11388,10837,7313,5903,2501,13508,Tag0,unknown
1545011290028,0,-295,-6.48193359375E-5,41,47,36,299995,30917,11388,10837,7313,5903,2501,13508,Tag0,unknown
1545011290028,0,-330,-7.2509765625E-5,41,47,36,299995,30917,11388,10837,7313,5903,2501,13508,Tag0,unknown
1545011290029,0,22,4.833984375E-6,41,47,36,299995,30917,11388,10837,7313,5903,2501,13508,Tag0,unknown
1545011290039,0,114,2.5048828125000003E-5,41,47,36,299995,30917,11388,10837,7313,5903,2501,13508,Tag0,unknown
1545011290039,0,68,1.4941406250000001E-5,41,47,36,299995,30917,11388,10837,7313,5903,2501,13508,Tag0,unknown
1545011290039,0,-299,-6.56982421875E-5,41,47,36,299995,30917,11388,10837,7313,5903,2501,13508,Tag0,unknown
1545011290040,0,-340,-7.470703125E-5,41,47,36,299995,30917,11388,10837,7313,5903,2501,13508,Tag0,unknown
1545011290040,0,9,1.9775390625E-6,41,47,36,299995,30917,11388,10837,7313,5903,2501,13508,Tag0,unknown
1545011290040,0,113,2.48291015625E-5,41,47,36,299995,30917,11388,10837,7313,5903,2501,13508,Tag0,unknown
1545011290040,0,80,1.7578125E-5,41,47,36,299995,30917,11388,10837,7313,5903,2501,13508,Tag0,unknown
1545011290040,0,-296,-6.50390625E-5,41,47,36,299995,30917,11388,10837,7313,5903,2501,13508,Tag0,unknown
1545011290040,0,-347,-7.62451171875E-5,41,47,36,299995,30917,11388,10837,7313,5903,2501,13508,Tag0,unknown
1545011290043,0,-263,-5.7788085937500005E-5,41,47,36,299995,30917,11388,10837,7313,5903,2501,13508,Tag0,unknown
1545011290044,0,106,2.3291015625000003E-5,41,47,36,299995,30917,11388,10837,7313,5903,2501,13508,Tag0,unknown
1545011290044,0,91,1.99951171875E-5,41,47,36,299995,30917,11388,10837,7313,5903,2501,13508,Tag0,unknown
1545011290044,0,-265,-5.82275390625E-5,41,47,36,299995,30917,11388,10837,7313,5903,2501,13508,Tag0,unknown
1545011290056,0,-314,-6.8994140625E-5,41,47,36,299995,30917,11388,10837,7313,5903,2501,13508,Tag0,unknown
1545011290057,0,18,3.955078125E-6,41,47,36,299995,30917,11388,10837,7313,5903,2501,13508,Tag0,unknown
1545011290057,0,-117,-2.5708007812499998E-5,41,47,36,299995,30917,11388,10837,7313,5903,2501,13508,Tag0,unknown
1545011290057,0,-95,-2.08740234375E-5,41,47,36,299995,30917,11388,10837,7313,5903,2501,13508,Tag0,unknown
1545011290057,0,61,1.34033203125E-5,41,47,36,299995,30917,11388,10837,7313,5903,2501,13508,Tag0,unknown
1545011290057,0,-274,-6.0205078124999997E-5,41,47,36,299995,30917,11388,10837,7313,5903,2501,13508,Tag0,unknown
1545011290058,0,22,4.833984375E-6,41,47,36,299995,30917,11388,10837,7313,5903,2501,13508,Tag0,unknown
1545011290058,0,-125,-2.74658203125E-5,41,47,36,299995,30917,11388,10837,7313,5903,2501,13508,Tag0,unknown
1545011290058,0,-108,-2.3730468750000002E-5,41,47,36,299995,30917,11388,10837,7313,5903,2501,13508,Tag0,unknown
1545011290072,0,66,1.4501953125E-5,41,47,36,299995,30917,11388,10837,7313,5903,2501,13508,Tag0,unknown
1545011290072,0,-261,-5.73486328125E-5,41,47,36,299995,30917,11388,10837,7313,5903,2501,13508,Tag0,unknown
1545011290090,0,32,7.03125E-6,41,47,36,299995,30917,11388,10837,7313,5903,2501,13508,Tag0,unknown
1545011290090,0,-110,-2.4169921875E-5,41,47,36,299995,30917,11388,10837,7313,5903,2501,13508,Tag0,unknown
1545011290091,0,-70,-1.5380859375E-5,41,47,36,299995,30917,11388,10837,7313,5903,2501,13508,Tag0,unknown
1545011290091,0,97,2.13134765625E-5,41,47,36,299995,30917,11388,10837,7313,5903,2501,13508,Tag0,unknown
1545011290091,0,-263,-5.7788085937500005E-5,41,47,36,299995,30917,11388,10837,7313,5903,2501,13508,Tag0,unknown
1545011290092,0,-260,-5.712890625E-5,41,47,36,299995,30917,11388,10837,7313,5903,2501,13508,Tag0,unknown
1545011290092,0,89,1.95556640625E-5,41,47,36,299995,30917,11388,10837,7313,5903,2501,13508,Tag0,unknown
1545011290108,0,-128,-2.8125E-5,41,47,36,299995,30917,11388,10837,7313,5903,2501,13508,Tag0,unknown
1545011290109,0,51,1.1206054687499999E-5,41,47,36,299995,30917,11388,10837,7313,5903,2501,13508,Tag0,unknown
1545011290109,0,-294,-6.4599609375E-5,41,47,36,299995,30917,11388,10837,7313,5903,2501,13508,Tag0,unknown
1545011290110,0,-293,-6.43798828125E-5,41,47,36,299995,30917,11388,10837,7313,5903,2501,13508,Tag0,unknown
1545011290110,0,64,1.40625E-5,41,47,36,299995,30917,11388,10837,7313,5903,2501,13508,Tag0,unknown
1545011290111,0,119,2.6147460937500004E-5,41,47,36,299995,30917,11388,10837,7313,5903,2501,13508,Tag0,unknown
1545011290111,0,43,9.448242187500001E-6,41,47,36,299995,30917,11388,10837,7313,5903,2501,13508,Tag0,unknown
1545011290111,0,-327,-7.18505859375E-5,41,47,36,299995,30917,11388,10837,7313,5903,2501,13508,Tag0,unknown
1545011290111,0,-349,-7.668457031250001E-5,41,47,36,299995,30917,11388,10837,7313,5903,2501,13508,Tag0,unknown
1545011290112,0,12,2.63671875E-6,41,47,36,299995,30917,11388,10837,7313,5903,2501,13508,Tag0,unknown
1545011290112,0,108,2.3730468750000002E-5,41,47,36,299995,30917,11388,10837,7313,5903,2501,13508,Tag0,unknown
1545011290115,0,56,1.23046875E-5,41,47,36,299995,30917,11388,10837,7313,5903,2501,13508,Tag0,unknown
1545011290115,0,-305,-6.70166015625E-5,41,47,36,299995,30917,11388,10837,7313,5903,2501,13508,Tag0,unknown
1545011290115,0,-326,-7.163085937500001E-5,41,47,36,299995,30917,11388,10837,7313,5903,2501,13508,Tag0,unknown
1545011290115,0,29,6.3720703125E-6,41,47,36,299995,30917,11388,10837,7313,5903,2501,13508,Tag0,unknown
1545011290115,0,-120,-2.63671875E-5,41,47,36,299995,30917,11388,10837,7313,5903,2501,13508,Tag0,unknown
1545011290116,0,105,2.30712890625E-5,41,47,36,299995,30917,11388,10837,7313,5903,2501,13508,Tag0,unknown
1545011290116,0,-267,-5.86669921875E-5,41,47,36,299995,30917,11388,10837,7313,5903,2501,13508,Tag0,unknown
1545011290123,0,-325,-7.14111328125E-5,41,47,36,299995,30917,11388,10837,7313,5903,2501,13508,Tag0,unknown
1545011290123,0,-262,-5.7568359375E-5,41,47,36,299995,30917,11388,10837,7313,5903,2501,13508,Tag0,unknown
1545011290124,0,92,2.021484375E-5,41,47,36,299995,30917,11388,10837,7313,5903,2501,13508,Tag0,unknown
1545011290124,0,96,2.109375E-5,41,47,36,299995,30917,11388,10837,7313,5903,2501,13508,Tag0,unknown
1545011290124,0,2,4.39453125E-7,41,47,36,299995,30917,11388,10837,7313,5903,2501,13508,Tag0,unknown
1545011290125,0,-309,-6.78955078125E-5,41,47,36,299995,30917,11388,10837,7313,5903,2501,13508,Tag0,unknown
1545011290138,0,7,1.5380859375E-6,41,47,36,299995,30917,11388,10837,7313,5903,2501,13508,Tag0,unknown
1545011290138,0,109,2.39501953125E-5,41,47,36,299995,30917,11388,10837,7313,5903,2501,13508,Tag0,unknown
1545011290139,0,109,2.39501953125E-5,41,47,36,299995,30917,11388,10837,7313,5903,2501,13508,Tag0,unknown
1545011290139,0,12,2.63671875E-6,41,47,36,299995,30917,11388,10837,7313,5903,2501,13508,Tag0,unknown
1545011290139,0,-314,-6.8994140625E-5,41,47,36,299995,30917,11388,10837,7313,5903,2501,13508,Tag0,unknown
1545011290139,0,-265,-5.82275390625E-5,41,47,36,299995,30917,11388,10837,7313,5903,2501,13508,Tag0,unknown
1545011290140,0,102,2.2412109374999998E-5,41,47,36,299995,30917,11388,10837,7313,5903,2501,13508,Tag0,unknown
1545011290140,0,108,2.3730468750000002E-5,41,47,36,299995,30917,11388,10837,7313,5903,2501,13508,Tag0,unknown
1545011290155,0,5,1.0986328125E-6,41,47,36,299995,30917,11388,10837,7313,5903,2501,13508,Tag0,unknown
1545011290155,0,-327,-7.18505859375E-5,41,47,36,299995,30917,11388,10837,7313,5903,2501,13508,Tag0,unknown
1545011290155,0,-276,-6.064453125E-5,41,47,36,299995,30917,11388,10837,7313,5903,2501,13508,Tag0,unknown
1545011290156,0,105,2.30712890625E-5,41,47,36,299995,30917,11388,10837,7313,5903,2501,13508,Tag0,unknown
1545011290157,0,-110,-2.4169921875E-5,41,47,36,299995,30917,11388,10837,7313,5903,2501,13508,Tag0,unknown
1545011290157,0,59,1.29638671875E-5,41,47,36,299995,30917,11388,10837,7313,5903,2501,13508,Tag0,unknown
1545011290157,0,-285,-6.26220703125E-5,41,47,36,299995,30917,11388,10837,7313,5903,2501,13508,Tag0,unknown
1545011290157,0,-265,-5.82275390625E-5,41,47,36,299995,30917,11388,10837,7313,5903,2501,13508,Tag0,unknown
1545011290157,0,105,2.30712890625E-5,41,47,36,299995,30917,11388,10837,7313,5903,2501,13508,Tag0,unknown
1545011290172,0,-108,-2.3730468750000002E-5,41,47,36,299995,30917,11388,10837,7313,5903,2501,13508,Tag0,unknown
1545011290172,0,65,1.42822265625E-5,41,47,36,299995,30917,11388,10837,7313,5903,2501,13508,Tag0,unknown
1545011290173,0,-276,-6.064453125E-5,41,47,36,299995,30917,11388,10837,7313,5903,2501,13508,Tag0,unknown
1545011290173,0,4,8.7890625E-7,41,47,36,299995,30917,11388,10837,7313,5903,2501,13508,Tag0,unknown
1545011290173,0,125,2.74658203125E-5,41,47,36,299995,30917,11388,10837,7313,5903,2501,13508,Tag0,unknown
1545011290173,0,-72,-1.58203125E-5,41,47,36,299995,30917,11388,10837,7313,5903,2501,13508,Tag0,unknown
1545011290173,0,102,2.2412109374999998E-5,41,47,36,299995,30917,11388,10837,7313,5903,2501,13508,Tag0,unknown
1545011290174,0,-273,-5.998535156250001E-5,41,47,36,299995,30917,11388,10837,7313,5903,2501,13508,Tag0,unknown
1545011290174,0,-285,-6.26220703125E-5,41,47,36,299995,30917,11388,10837,7313,5903,2501,13508,Tag0,unknown
1545011290193,0,72,1.58203125E-5,41,47,36,299995,30917,11388,10837,7313,5903,2501,13508,Tag0,unknown
1545011290194,0,-112,-2.4609375E-5,41,47,36,299995,30917,11388,10837,7313,5903,2501,13508,Tag0,unknown
1545011290202,0,88,1.93359375E-5,41,47,36,299995,30917,11388,10837,7313,5903,2501,13508,Tag0,unknown
1545011290202,0,-262,-5.7568359375E-5,41,47,36,299995,30917,11388,10837,7313,5903,2501,13508,Tag0,unknown
1545011290203,0,-281,-6.17431640625E-5,41,47,36,299995,30917,11388,10837,7313,5903,2501,13508,Tag0,unknown
1545011290203,0,65,1.42822265625E-5,41,47,36,299995,30917,11388,10837,7313,5903,2501,13508,Tag0,unknown
1545011290203,0,-115,-2.52685546875E-5,41,47,36,299995,30917,11388,10837,7313,5903,2501,13508,Tag0,unknown
1545011290203,0,91,1.99951171875E-5,41,47,36,299995,30917,11388,10837,7313,5903,2501,13508,Tag0,unknown
1545011290204,0,-275,-6.04248046875E-5,41,47,36,299995,30917,11388,10837,7313,5903,2501,13508,Tag0,unknown
1545011290204,0,-302,-6.6357421875E-5,41,47,36,299995,30917,11388,10837,7313,5903,2501,13508,Tag0,unknown
1545011290206,0,42,9.228515625000002E-6,41,47,36,299995,30917,11388,10837,7313,5903,2501,13508,Tag0,unknown
1545011290206,0,-106,-2.3291015625000003E-5,41,47,36,299995,30917,11388,10837,7313,5903,2501,13508,Tag0,unknown
1545011290206,0,-121,-2.6586914062500003E-5,41,47,36,299995,30917,11388,10837,7313,5903,2501,13508,Tag0,unknown
1545011290207,0,34,7.4707031250000005E-6,41,47,36,299995,30917,11388,10837,7313,5903,2501,13508,Tag0,unknown
1545011290207,0,-269,-5.9106445312499996E-5,41,47,36,299995,30917,11388,10837,7313,5903,2501,13508,Tag0,unknown
1545011290207,0,65,1.42822265625E-5,41,47,36,299995,30917,11388,10837,7313,5903,2501,13508,Tag0,unknown
1545011290207,0,-84,-1.8457031250000004E-5,41,47,36,299995,30917,11388,10837,7313,5903,2501,13508,Tag0,unknown
1545011290227,0,-100,-2.197265625E-5,41,47,36,299995,30917,11388,10837,7313,5903,2501,13508,Tag0,unknown
1545011290227,0,27,5.9326171875000005E-6,41,47,36,299995,30917,11388,10837,7313,5903,2501,13508,Tag0,unknown
1545011290227,0,-313,-6.87744140625E-5,41,47,36,299995,30917,11388,10837,7313,5903,2501,13508,Tag0,unknown
1545011290228,0,-258,-5.6689453125000004E-5,41,47,36,299995,30917,11388,10837,7313,5903,2501,13508,Tag0,unknown
1545011290228,0,121,2.6586914062500003E-5,41,47,36,299995,30917,11388,10837,7313,5903,2501,13508,Tag0,unknown
1545011290228,0,-117,-2.5708007812499998E-5,41,47,36,299995,30917,11388,10837,7313,5903,2501,13508,Tag0,unknown
1545011290228,0,41,9.008789062499999E-6,41,47,36,299995,30917,11388,10837,7313,5903,2501,13508,Tag0,unknown
1545011290229,0,-285,-6.26220703125E-5,41,47,36,299995,30917,11388,10837,7313,5903,2501,13508,Tag0,unknown
1545011290229,0,27,5.9326171875000005E-6,41,47,36,299995,30917,11388,10837,7313,5903,2501,13508,Tag0,unknown
1545011290229,0,-99,-2.1752929687500003E-5,41,47,36,299995,30917,11388,10837,7313,5903,2501,13508,Tag0,unknown
1545011290241,0,-62,-1.3623046875E-5,41,47,36,299995,30917,11388,10837,7313,5903,2501,13508,Tag0,unknown
1545011290241,0,91,1.99951171875E-5,41,47,36,299995,30917,11388,10837,7313,5903,2501,13508,Tag0,unknown
1545011290245,0,-267,-5.86669921875E-5,41,47,36,299995,30917,11388,10837,7313,5903,2501,13508,Tag0,unknown
1545011290245,0,-258,-5.6689453125000004E-5,41,47,36,299995,30917,11388,10837,7313,5903,2501,13508,Tag0,unknown
1545011290246,0,100,2.197265625E-5,41,47,36,299995,30917,11388,10837,7313,5903,2501,13508,Tag0,unknown
1545011290246,0,-123,-2.70263671875E-5,41,47,36,299995,30917,11388,10837,7313,5903,2501,13508,Tag0,unknown
1545011290246,0,45,9.8876953125E-6,41,47,36,299995,30917,11388,10837,7313,5903,2501,13508,Tag0,unknown
1545011290247,0,-299,-6.56982421875E-5,41,47,36,299995,30917,11388,10837,7313,5903,2501,13508,Tag0,unknown
1545011290256,0,-270,-5.9326171875E-5,41,47,36,299995,30917,11388,10837,7313,5903,2501,13508,Tag0,unknown
1545011290256,0,107,2.35107421875E-5,41,47,36,299995,30917,11388,10837,7313,5903,2501,13508,Tag0,unknown
1545011290256,0,-94,-2.0654296875000002E-5,41,47,36,299995,30917,11388,10837,7313,5903,2501,13508,Tag0,unknown
1545011290256,0,59,1.29638671875E-5,41,47,36,299995,30917,11388,10837,7313,5903,2501,13508,Tag0,unknown
1545011290257,0,-330,-7.2509765625E-5,41,47,36,299995,30917,11388,10837,7313,5903,2501,13508,Tag0,unknown
1545011290257,0,-343,-7.53662109375E-5,41,47,36,299995,30917,11388,10837,7313,5903,2501,13508,Tag0,unknown
1545011290257,0,43,9.448242187500001E-6,41,47,36,299995,30917,11388,10837,7313,5903,2501,13508,Tag0,unknown
1545011290257,0,-89,-1.95556640625E-5,41,47,36,299995,30917,11388,10837,7313,5903,2501,13508,Tag0,unknown
1545011290271,0,-110,-2.4169921875E-5,41,47,36,299995,30917,11388,10837,7313,5903,2501,13508,Tag0,unknown
1545011290271,0,41,9.008789062499999E-6,41,47,36,299995,30917,11388,10837,7313,5903,2501,13508,Tag0,unknown
1545011290271,0,4,8.7890625E-7,41,47,36,299995,30917,11388,10837,7313,5903,2501,13508,Tag0,unknown
1545011290274,0,89,1.95556640625E-5,41,47,36,299995,30917,11388,10837,7313,5903,2501,13508,Tag0,unknown
1545011290275,0,-83,-1.82373046875E-5,41,47,36,299995,30917,11388,10837,7313,5903,2501,13508,Tag0,unknown
1545011290275,0,-106,-2.3291015625000003E-5,41,47,36,299995,30917,11388,10837,7313,5903,2501,13508,Tag0,unknown
1545011290275,0,69,1.51611328125E-5,41,47,36,299995,30917,11388,10837,7313,5903,2501,13508,Tag0,unknown
1545011290276,0,39,8.5693359375E-6,41,47,36,299995,30917,11388,10837,7313,5903,2501,13508,Tag0,unknown
1545011290290,0,108,2.3730468750000002E-5,41,47,36,299995,30917,11388,10837,7313,5903,2501,13508,Tag0,unknown
1545011290290,0,-85,-1.86767578125E-5,41,47,36,299995,30917,11388,10837,7313,5903,2501,13508,Tag0,unknown
1545011290290,0,115,2.52685546875E-5,41,47,36,299995,30917,11388,10837,7313,5903,2501,13508,Tag0,unknown
1545011290290,0,10,2.197265625E-6,41,47,36,299995,30917,11388,10837,7313,5903,2501,13508,Tag0,unknown
1545011290291,0,-268,-5.8886718750000006E-5,41,47,36,299995,30917,11388,10837,7313,5903,2501,13508,Tag0,unknown
1545011290291,0,82,1.8017578124999998E-5,41,47,36,299995,30917,11388,10837,7313,5903,2501,13508,Tag0,unknown
1545011290291,0,-84,-1.8457031250000004E-5,41,47,36,299995,30917,11388,10837,7313,5903,2501,13508,Tag0,unknown
1545011290291,0,-109,-2.39501953125E-5,41,47,36,299995,30917,11388,10837,7313,5903,2501,13508,Tag0,unknown
1545011290291,0,49,1.07666015625E-5,41,47,36,299995,30917,11388,10837,7313,5903,2501,13508,Tag0,unknown
1545011290308,0,-263,-5.7788085937500005E-5,41,47,36,299995,30917,11388,10837,7313,5903,2501,13508,Tag0,unknown
1545011290308,0,39,8.5693359375E-6,41,47,36,299995,30917,11388,10837,7313,5903,2501,13508,Tag0,unknown
1545011290308,0,-128,-2.8125E-5,41,47,36,299995,30917,11388,10837,7313,5903,2501,13508,Tag0,unknown
1545011290311,0,120,2.63671875E-5,41,47,36,299995,30917,11388,10837,7313,5903,2501,13508,Tag0,unknown
1545011290311,0,33,7.2509765625E-6,41,47,36,299995,30917,11388,10837,7313,5903,2501,13508,Tag0,unknown
1545011290312,0,-268,-5.8886718750000006E-5,41,47,36,299995,30917,11388,10837,7313,5903,2501,13508,Tag0,unknown
1545011290312,0,58,1.2744140625E-5,41,47,36,299995,30917,11388,10837,7313,5903,2501,13508,Tag0,unknown
1545011290312,0,-84,-1.8457031250000004E-5,41,47,36,299995,30917,11388,10837,7313,5903,2501,13508,Tag0,unknown
1545011290312,0,-76,-1.669921875E-5,41,47,36,299995,30917,11388,10837,7313,5903,2501,13508,Tag0,unknown
1545011290312,0,70,1.5380859375E-5,41,47,36,299995,30917,11388,10837,7313,5903,2501,13508,Tag0,unknown
1545011290321,0,-281,-6.17431640625E-5,41,47,36,299995,30917,11388,10837,7313,5903,2501,13508,Tag0,unknown
1545011290321,0,4,8.7890625E-7,41,47,36,299995,30917,11388,10837,7313,5903,2501,13508,Tag0,unknown
1545011290322,0,119,2.6147460937500004E-5,41,47,36,299995,30917,11388,10837,7313,5903,2501,13508,Tag0,unknown
1545011290322,0,-101,-2.2192382812500002E-5,41,47,36,299995,30917,11388,10837,7313,5903,2501,13508,Tag0,unknown
1545011290322,0,70,1.5380859375E-5,41,47,36,299995,30917,11388,10837,7313,5903,2501,13508,Tag0,unknown
1545011290338,0,-276,-6.064453125E-5,41,47,36,299995,30917,11388,10837,7313,5903,2501,13508,Tag0,unknown
1545011290339,0,7,1.5380859375E-6,41,47,36,299995,30917,11388,10837,7313,5903,2501,13508,Tag0,unknown
1545011290339,0,-123,-2.70263671875E-5,41,47,36,299995,30917,11388,10837,7313,5903,2501,13508,Tag0,unknown
1545011290339,0,-72,-1.58203125E-5,41,47,36,299995,30917,11388,10837,7313,5903,2501,13508,Tag0,unknown
1545011290339,0,89,1.95556640625E-5,41,47,36,299995,30917,11388,10837,7313,5903,2501,13508,Tag0,unknown
1545011290339,0,-282,-6.1962890625E-5,41,47,36,299995,30917,11388,10837,7313,5903,2501,13508,Tag0,unknown
1545011290342,0,-285,-6.26220703125E-5,41,47,36,299995,30917,11388,10837,7313,5903,2501,13508,Tag0,unknown
1545011290343,0,70,1.5380859375E-5,41,47,36,299995,30917,11388,10837,7313,5903,2501,13508,Tag0,unknown
1545011290343,0,-124,-2.724609375E-5,41,47,36,299995,30917,11388,10837,7313,5903,2501,13508,Tag0,unknown
1545011290343,0,69,1.51611328125E-5,41,47,36,299995,30917,11388,10837,7313,5903,2501,13508,Tag0,unknown
1545011290357,0,-281,-6.17431640625E-5,41,47,36,299995,30917,11388,10837,7313,5903,2501,13508,Tag0,unknown
1545011290358,0,-292,-6.416015625000001E-5,41,47,36,299995,30917,11388,10837,7313,5903,2501,13508,Tag0,unknown
1545011290358,0,69,1.51611328125E-5,41,47,36,299995,30917,11388,10837,7313,5903,2501,13508,Tag0,unknown
1545011290358,0,-106,-2.3291015625000003E-5,41,47,36,299995,30917,11388,10837,7313,5903,2501,13508,Tag0,unknown
1545011290358,0,99,2.1752929687500003E-5,41,47,36,299995,30917,11388,10837,7313,5903,2501,13508,Tag0,unknown
1545011290359,0,-268,-5.8886718750000006E-5,41,47,36,299995,30917,11388,10837,7313,5903,2501,13508,Tag0,unknown
1545011290359,0,-302,-6.6357421875E-5,41,47,36,299995,30917,11388,10837,7313,5903,2501,13508,Tag0,unknown
1545011290359,0,38,8.349609375E-6,41,47,36,299995,30917,11388,10837,7313,5903,2501,13508,Tag0,unknown
1545011290360,0,-128,-2.8125E-5,41,47,36,299995,30917,11388,10837,7313,5903,2501,13508,Tag0,unknown
1545011290360,0,86,1.8896484375000003E-5,41,47,36,299995,30917,11388,10837,7313,5903,2501,13508,Tag0,unknown
1545011290372,0,-276,-6.064453125E-5,41,47,36,299995,30917,11388,10837,7313,5903,2501,13508,Tag0,unknown
1545011290372,0,-307,-6.74560546875E-5,41,47,36,299995,30917,11388,10837,7313,5903,2501,13508,Tag0,unknown
1545011290372,0,44,9.66796875E-6,41,47,36,299995,30917,11388,10837,7313,5903,2501,13508,Tag0,unknown
1545011290373,0,-105,-2.30712890625E-5,41,47,36,299995,30917,11388,10837,7313,5903,2501,13508,Tag0,unknown
1545011290373,0,120,2.63671875E-5,41,47,36,299995,30917,11388,10837,7313,5903,2501,13508,Tag0,unknown
1545011290376,0,12,2.63671875E-6,41,47,36,299995,30917,11388,10837,7313,5903,2501,13508,Tag0,unknown
1545011290376,0,-289,-6.35009765625E-5,41,47,36,299995,30917,11388,10837,7313,5903,2501,13508,Tag0,unknown
1545011290377,0,24,5.2734375E-6,41,47,36,299995,30917,11388,10837,7313,5903,2501,13508,Tag0,unknown
1545011290388,0,114,2.5048828125000003E-5,41,47,36,299995,30917,11388,10837,7313,5903,2501,13508,Tag0,unknown
1545011290388,0,98,2.1533203125E-5,41,47,36,299995,30917,11388,10837,7313,5903,2501,13508,Tag0,unknown
1545011290388,0,8,1.7578125E-6,41,47,36,299995,30917,11388,10837,7313,5903,2501,13508,Tag0,unknown
1545011290388,0,-290,-6.3720703125E-5,41,47,36,299995,30917,11388,10837,7313,5903,2501,13508,Tag0,unknown
1545011290388,0,35,7.6904296875E-6,41,47,36,299995,30917,11388,10837,7313,5903,2501,13508,Tag0,unknown
1545011290389,0,-108,-2.3730468750000002E-5,41,47,36,299995,30917,11388,10837,7313,5903,2501,13508,Tag0,unknown
1545011290389,0,-92,-2.021484375E-5,41,47,36,299995,30917,11388,10837,7313,5903,2501,13508,Tag0,unknown
1545011290405,0,68,1.4941406250000001E-5,41,47,36,299995,30917,11388,10837,7313,5903,2501,13508,Tag0,unknown
1545011290405,0,-275,-6.04248046875E-5,41,47,36,299995,30917,11388,10837,7313,5903,2501,13508,Tag0,unknown
1545011290406,0,7,1.5380859375E-6,41,47,36,299995,30917,11388,10837,7313,5903,2501,13508,Tag0,unknown
1545011290406,0,104,2.28515625E-5,41,47,36,299995,30917,11388,10837,7313,5903,2501,13508,Tag0,unknown
1545011290406,0,118,2.5927734375E-5,41,47,36,299995,30917,11388,10837,7313,5903,2501,13508,Tag0,unknown
1545011290409,0,26,5.712890625E-6,41,47,36,299995,30917,11388,10837,7313,5903,2501,13508,Tag0,unknown
1545011290409,0,-298,-6.5478515625E-5,41,47,36,299995,30917,11388,10837,7313,5903,2501,13508,Tag0,unknown
1545011290409,0,1,2.197265625E-7,41,47,36,299995,30917,11388,10837,7313,5903,2501,13508,Tag0,unknown
1545011290410,0,109,2.39501953125E-5,41,47,36,299995,30917,11388,10837,7313,5903,2501,13508,Tag0,unknown
1545011290421,0,-95,-2.08740234375E-5,41,47,36,299995,30917,11388,10837,7313,5903,2501,13508,Tag0,unknown
1545011290421,0,86,1.8896484375000003E-5,41,47,36,299995,30917,11388,10837,7313,5903,2501,13508,Tag0,unknown
1545011290422,0,-274,-6.0205078124999997E-5,41,47,36,299995,30917,11388,10837,7313,5903,2501,13508,Tag0,unknown
1545011290422,0,-285,-6.26220703125E-5,41,47,36,299995,30917,11388,10837,7313,5903,2501,13508,Tag0,unknown
1545011290422,0,52,1.142578125E-5,41,47,36,299995,30917,11388,10837,7313,5903,2501,13508,Tag0,unknown
1545011290423,0,91,1.99951171875E-5,41,47,36,299995,30917,11388,10837,7313,5903,2501,13508,Tag0,unknown
1545011290423,0,18,3.955078125E-6,41,47,36,299995,30917,11388,10837,7313,5903,2501,13508,Tag0,unknown
1545011290423,0,-327,-7.18505859375E-5,41,47,36,299995,30917,11388,10837,7313,5903,2501,13508,Tag0,unknown
1545011290423,0,-318,-6.9873046875E-5,41,47,36,299995,30917,11388,10837,7313,5903,2501,13508,Tag0,unknown
1545011290450,0,51,1.1206054687499999E-5,41,47,36,299995,30917,11388,10837,7313,5903,2501,13508,Tag0,unknown
1545011290451,0,123,2.70263671875E-5,41,47,36,299995,30917,11388,10837,7313,5903,2501,13508,Tag0,unknown
1545011290451,0,48,1.0546875E-5,41,47,36,299995,30917,11388,10837,7313,5903,2501,13508,Tag0,unknown
1545011290451,0,-325,-7.14111328125E-5,41,47,36,299995,30917,11388,10837,7313,5903,2501,13508,Tag0,unknown
1545011290454,0,-337,-7.40478515625E-5,41,47,36,299995,30917,11388,10837,7313,5903,2501,13508,Tag0,unknown
1545011290454,0,37,8.1298828125E-6,41,47,36,299995,30917,11388,10837,7313,5903,2501,13508,Tag0,unknown
1545011290454,0,-121,-2.6586914062500003E-5,41,47,36,299995,30917,11388,10837,7313,5903,2501,13508,Tag0,unknown
1545011290455,0,98,2.1533203125E-5,41,47,36,299995,30917,11388,10837,7313,5903,2501,13508,Tag0,unknown
1545011290455,0,-267,-5.86669921875E-5,41,47,36,299995,30917,11388,10837,7313,5903,2501,13508,Tag0,unknown
1545011290455,0,-311,-6.833496093750001E-5,41,47,36,299995,30917,11388,10837,7313,5903,2501,13508,Tag0,unknown
1545011290455,0,26,5.712890625E-6,41,47,36,299995,30917,11388,10837,7313,5903,2501,13508,Tag0,unknown
1545011290459,0,-111,-2.43896484375E-5,41,47,36,299995,30917,11388,10837,7313,5903,2501,13508,Tag0,unknown
1545011290460,0,-101,-2.2192382812500002E-5,41,47,36,299995,30917,11388,10837,7313,5903,2501,13508,Tag0,unknown
1545011290460,0,73,1.6040039062500002E-5,41,47,36,299995,30917,11388,10837,7313,5903,2501,13508,Tag0,unknown
1545011290460,0,18,3.955078125E-6,41,47,36,299995,30917,11388,10837,7313,5903,2501,13508,Tag0,unknown
1545011290460,0,69,1.51611328125E-5,41,47,36,299995,30917,11388,10837,7313,5903,2501,13508,Tag0,unknown
1545011290460,0,-92,-2.021484375E-5,41,47,36,299995,30917,11388,10837,7313,5903,2501,13508,Tag0,unknown
1545011290461,0,-92,-2.021484375E-5,41,47,36,299995,30917,11388,10837,7313,5903,2501,13508,Tag0,unknown
1545011290461,0,75,1.64794921875E-5,41,47,36,299995,30917,11388,10837,7313,5903,2501,13508,Tag0,unknown
1545011290474,0,25,5.4931640625E-6,41,47,36,299995,30917,11388,10837,7313,5903,2501,13508,Tag0,unknown
1545011290474,0,91,1.99951171875E-5,41,47,36,299995,30917,11388,10837,7313,5903,2501,13508,Tag0,unknown
1545011290475,0,-55,-1.20849609375E-5,41,47,36,299995,30917,11388,10837,7313,5903,2501,13508,Tag0,unknown
1545011290475,0,-55,-1.20849609375E-5,41,47,36,299995,30917,11388,10837,7313,5903,2501,13508,Tag0,unknown
1545011290475,0,88,1.93359375E-5,41,47,36,299995,30917,11388,10837,7313,5903,2501,13508,Tag0,unknown
1545011290475,0,1,2.197265625E-7,41,47,36,299995,30917,11388,10837,7313,5903,2501,13508,Tag0,unknown
1545011290475,0,28,6.15234375E-6,41,47,36,299995,30917,11388,10837,7313,5903,2501,13508,Tag0,unknown
1545011290488,0,123,2.70263671875E-5,41,47,36,299995,30917,11388,10837,7313,5903,2501,13508,Tag0,unknown
1545011290489,0,-123,-2.70263671875E-5,41,47,36,299995,30917,11388,10837,7313,5903,2501,13508,Tag0,unknown
1545011290489,0,45,9.8876953125E-6,41,47,36,299995,30917,11388,10837,7313,5903,2501,13508,Tag0,unknown
1545011290492,0,-267,-5.86669921875E-5,41,47,36,299995,30917,11388,10837,7313,5903,2501,13508,Tag0,unknown
1545011290493,0,34,7.4707031250000005E-6,41,47,36,299995,30917,11388,10837,7313,5903,2501,13508,Tag0,unknown
1545011290493,0,-123,-2.70263671875E-5,41,47,36,299995,30917,11388,10837,7313,5903,2501,13508,Tag0,unknown
1545011290493,0,-112,-2.4609375E-5,41,47,36,299995,30917,11388,10837,7313,5903,2501,13508,Tag0,unknown
1545011290493,0,37,8.1298828125E-6,41,47,36,299995,30917,11388,10837,7313,5903,2501,13508,Tag0,unknown
1545011290505,0,-313,-6.87744140625E-5,41,47,36,299995,30917,11388,10837,7313,5903,2501,13508,Tag0,unknown
1545011290505,0,-292,-6.416015625000001E-5,41,47,36,299995,30917,11388,10837,7313,5903,2501,13508,Tag0,unknown
1545011290505,0,70,1.5380859375E-5,41,47,36,299995,30917,11388,10837,7313,5903,2501,13508,Tag0,unknown
1545011290505,0,115,2.52685546875E-5,41,47,36,299995,30917,11388,10837,7313,5903,2501,13508,Tag0,unknown
1545011290506,0,37,8.1298828125E-6,41,47,36,299995,30917,11388,10837,7313,5903,2501,13508,Tag0,unknown
1545011290506,0,-311,-6.833496093750001E-5,41,47,36,299995,30917,11388,10837,7313,5903,2501,13508,Tag0,unknown
1545011290506,0,-296,-6.50390625E-5,41,47,36,299995,30917,11388,10837,7313,5903,2501,13508,Tag0,unknown
1545011290506,0,70,1.5380859375E-5,41,47,36,299995,30917,11388,10837,7313,5903,2501,13508,Tag0,unknown
1545011290524,0,123,2.70263671875E-5,41,47,36,299995,30917,11388,10837,7313,5903,2501,13508,Tag0,unknown
1545011290524,0,41,9.008789062499999E-6,41,47,36,299995,30917,11388,10837,7313,5903,2501,13508,Tag0,unknown
1545011290524,0,-317,-6.96533203125E-5,41,47,36,299995,30917,11388,10837,7313,5903,2501,13508,Tag0,unknown
1545011290524,0,-328,-7.207031249999999E-5,41,47,36,299995,30917,11388,10837,7313,5903,2501,13508,Tag0,unknown
1545011290528,0,25,5.4931640625E-6,41,47,36,299995,30917,11388,10837,7313,5903,2501,13508,Tag0,unknown
1545011290528,0,103,2.26318359375E-5,41,47,36,299995,30917,11388,10837,7313,5903,2501,13508,Tag0,unknown
1545011290528,0,51,1.1206054687499999E-5,41,47,36,299995,30917,11388,10837,7313,5903,2501,13508,Tag0,unknown
1545011290528,0,-299,-6.56982421875E-5,41,47,36,299995,30917,11388,10837,7313,5903,2501,13508,Tag0,unknown
1545011290529,0,-315,-6.92138671875E-5,41,47,36,299995,30917,11388,10837,7313,5903,2501,13508,Tag0,unknown
1545011290540,0,33,7.2509765625E-6,41,47,36,299995,30917,11388,10837,7313,5903,2501,13508,Tag0,unknown
1545011290540,0,117,2.5708007812499998E-5,41,47,36,299995,30917,11388,10837,7313,5903,2501,13508,Tag0,unknown
1545011290541,0,74,1.6259765625E-5,41,47,36,299995,30917,11388,10837,7313,5903,2501,13508,Tag0,unknown
1545011290541,0,-299,-6.56982421875E-5,41,47,36,299995,30917,11388,10837,7313,5903,2501,13508,Tag0,unknown
1545011290541,0,-362,-7.954101562500001E-5,41,47,36,299995,30917,11388,10837,7313,5903,2501,13508,Tag0,unknown
1545011290541,0,-281,-6.17431640625E-5,41,47,36,299995,30917,11388,10837,7313,5903,2501,13508,Tag0,unknown
1545011290541,0,99,2.1752929687500003E-5,41,47,36,299995,30917,11388,10837,7313,5903,2501,13508,Tag0,unknown
1545011290542,0,100,2.197265625E-5,41,47,36,299995,30917,11388,10837,7313,5903,2501,13508,Tag0,unknown
1545011290542,0,7,1.5380859375E-6,41,47,36,299995,30917,11388,10837,7313,5903,2501,13508,Tag0,unknown
1545011290556,0,-293,-6.43798828125E-5,41,47,36,299995,30917,11388,10837,7313,5903,2501,13508,Tag0,unknown
1545011290557,0,32,7.03125E-6,41,47,36,299995,30917,11388,10837,7313,5903,2501,13508,Tag0,unknown
1545011290557,0,-120,-2.63671875E-5,41,47,36,299995,30917,11388,10837,7313,5903,2501,13508,Tag0,unknown
1545011290557,0,-125,-2.74658203125E-5,41,47,36,299995,30917,11388,10837,7313,5903,2501,13508,Tag0,unknown
1545011290560,0,19,4.1748046875E-6,41,47,36,299995,30917,11388,10837,7313,5903,2501,13508,Tag0,unknown
1545011290560,0,-313,-6.87744140625E-5,41,47,36,299995,30917,11388,10837,7313,5903,2501,13508,Tag0,unknown
1545011290560,0,-263,-5.7788085937500005E-5,41,47,36,299995,30917,11388,10837,7313,5903,2501,13508,Tag0,unknown
1545011290560,0,98,2.1533203125E-5,41,47,36,299995,30917,11388,10837,7313,5903,2501,13508,Tag0,unknown
1545011290574,0,96,2.109375E-5,41,47,36,299995,30917,11388,10837,7313,5903,2501,13508,Tag0,unknown
1545011290574,0,-270,-5.9326171875E-5,41,47,36,299995,30917,11388,10837,7313,5903,2501,13508,Tag0,unknown
1545011290574,0,-345,-7.58056640625E-5,41,47,36,299995,30917,11388,10837,7313,5903,2501,13508,Tag0,unknown
1545011290575,0,-290,-6.3720703125E-5,41,47,36,299995,30917,11388,10837,7313,5903,2501,13508,Tag0,unknown
1545011290575,0,92,2.021484375E-5,41,47,36,299995,30917,11388,10837,7313,5903,2501,13508,Tag0,unknown
1545011290575,0,-127,-2.79052734375E-5,41,47,36,299995,30917,11388,10837,7313,5903,2501,13508,Tag0,unknown
1545011290576,0,35,7.6904296875E-6,41,47,36,299995,30917,11388,10837,7313,5903,2501,13508,Tag0,unknown
1545011290576,0,-312,-6.85546875E-5,41,47,36,299995,30917,11388,10837,7313,5903,2501,13508,Tag0,unknown
1545011290577,0,-297,-6.525878906250001E-5,41,47,36,299995,30917,11388,10837,7313,5903,2501,13508,Tag0,unknown
1545011290577,0,68,1.4941406250000001E-5,41,47,36,299995,30917,11388,10837,7313,5903,2501,13508,Tag0,unknown
1545011290590,0,121,2.6586914062500003E-5,41,47,36,299995,30917,11388,10837,7313,5903,2501,13508,Tag0,unknown
1545011290591,0,55,1.20849609375E-5,41,47,36,299995,30917,11388,10837,7313,5903,2501,13508,Tag0,unknown
1545011290592,0,-277,-6.0864257812500005E-5,41,47,36,299995,30917,11388,10837,7313,5903,2501,13508,Tag0,unknown
1545011290595,0,-260,-5.712890625E-5,41,47,36,299995,30917,11388,10837,7313,5903,2501,13508,Tag0,unknown
1545011290595,0,101,2.2192382812500002E-5,41,47,36,299995,30917,11388,10837,7313,5903,2501,13508,Tag0,unknown
1545011290595,0,-93,-2.04345703125E-5,41,47,36,299995,30917,11388,10837,7313,5903,2501,13508,Tag0,unknown
1545011290595,0,101,2.2192382812500002E-5,41,47,36,299995,30917,11388,10837,7313,5903,2501,13508,Tag0,unknown
1545011290595,0,-258,-5.6689453125000004E-5,41,47,36,299995,30917,11388,10837,7313,5903,2501,13508,Tag0,unknown
1545011290606,0,-275,-6.04248046875E-5,41,47,36,299995,30917,11388,10837,7313,5903,2501,13508,Tag0,unknown
1545011290606,0,75,1.64794921875E-5,41,47,36,299995,30917,11388,10837,7313,5903,2501,13508,Tag0,unknown
1545011290606,0,-116,-2.548828125E-5,41,47,36,299995,30917,11388,10837,7313,5903,2501,13508,Tag0,unknown
1545011290607,0,80,1.7578125E-5,41,47,36,299995,30917,11388,10837,7313,5903,2501,13508,Tag0,unknown
1545011290607,0,-276,-6.064453125E-5,41,47,36,299995,30917,11388,10837,7313,5903,2501,13508,Tag0,unknown
1545011290607,0,-289,-6.35009765625E-5,41,47,36,299995,30917,11388,10837,7313,5903,2501,13508,Tag0,unknown
1545011290607,0,58,1.2744140625E-5,41,47,36,299995,30917,11388,10837,7313,5903,2501,13508,Tag0,unknown
1545011290607,0,-115,-2.52685546875E-5,41,47,36,299995,30917,11388,10837,7313,5903,2501,13508,Tag0,unknown
1545011290626,0,107,2.35107421875E-5,41,47,36,299995,30917,11388,10837,7313,5903,2501,13508,Tag0,unknown
1545011290626,0,-259,-5.69091796875E-5,41,47,36,299995,30917,11388,10837,7313,5903,2501,13508,Tag0,unknown
1545011290626,0,-309,-6.78955078125E-5,41,47,36,299995,30917,11388,10837,7313,5903,2501,13508,Tag0,unknown
1545011290629,0,26,5.712890625E-6,41,47,36,299995,30917,11388,10837,7313,5903,2501,13508,Tag0,unknown
1545011290630,0,-120,-2.63671875E-5,41,47,36,299995,30917,11388,10837,7313,5903,2501,13508,Tag0,unknown
1545011290630,0,124,2.724609375E-5,41,47,36,299995,30917,11388,10837,7313,5903,2501,13508,Tag0,unknown
1545011290640,0,23,5.0537109375E-6,41,47,36,299995,30917,11388,10837,7313,5903,2501,13508,Tag0,unknown
1545011290640,0,-289,-6.35009765625E-5,41,47,36,299995,30917,11388,10837,7313,5903,2501,13508,Tag0,unknown
1545011290641,0,35,7.6904296875E-6,41,47,36,299995,30917,11388,10837,7313,5903,2501,13508,Tag0,unknown
1545011290641,0,-123,-2.70263671875E-5,41,47,36,299995,30917,11388,10837,7313,5903,2501,13508,Tag0,unknown
1545011290641,0,101,2.2192382812500002E-5,41,47,36,299995,30917,11388,10837,7313,5903,2501,13508,Tag0,unknown
1545011290641,0,-280,-6.15234375E-5,41,47,36,299995,30917,11388,10837,7313,5903,2501,13508,Tag0,unknown
1545011290641,0,-355,-7.80029296875E-5,41,47,36,299995,30917,11388,10837,7313,5903,2501,13508,Tag0,unknown
1545011290642,0,-277,-6.0864257812500005E-5,41,47,36,299995,30917,11388,10837,7313,5903,2501,13508,Tag0,unknown
1545011290642,0,113,2.48291015625E-5,41,47,36,299995,30917,11388,10837,7313,5903,2501,13508,Tag0,unknown
1545011290642,0,116,2.548828125E-5,41,47,36,299995,30917,11388,10837,7313,5903,2501,13508,Tag0,unknown
1545011290642,0,-257,-5.64697265625E-5,41,47,36,299995,30917,11388,10837,7313,5903,2501,13508,Tag0,unknown
1545011290642,0,-348,-7.646484375E-5,41,47,36,299995,30917,11388,10837,7313,5903,2501,13508,Tag0,unknown
1545011290655,0,-295,-6.48193359375E-5,41,47,36,299995,30917,11388,10837,7313,5903,2501,13508,Tag0,unknown
1545011290655,0,101,2.2192382812500002E-5,41,47,36,299995,30917,11388,10837,7313,5903,2501,13508,Tag0,unknown
1545011290655,0,-111,-2.43896484375E-5,41,47,36,299995,30917,11388,10837,7313,5903,2501,13508,Tag0,unknown
1545011290683,0,53,1.1645507812500002E-5,41,47,36,299995,30917,11388,10837,7313,5903,2501,13508,Tag0,unknown
1545011290684,0,-294,-6.4599609375E-5,41,47,36,299995,30917,11388,10837,7313,5903,2501,13508,Tag0,unknown
1545011290684,0,-265,-5.82275390625E-5,41,47,36,299995,30917,11388,10837,7313,5903,2501,13508,Tag0,unknown
1545011290684,0,97,2.13134765625E-5,41,47,36,299995,30917,11388,10837,7313,5903,2501,13508,Tag0,unknown
1545011290685,0,121,2.6586914062500003E-5,41,47,36,299995,30917,11388,10837,7313,5903,2501,13508,Tag0,unknown
1545011290685,0,24,5.2734375E-6,41,47,36,299995,30917,11388,10837,7313,5903,2501,13508,Tag0,unknown
1545011290685,0,-325,-7.14111328125E-5,41,47,36,299995,30917,11388,10837,7313,5903,2501,13508,Tag0,unknown
1545011290685,0,-301,-6.613769531250001E-5,41,47,36,299995,30917,11388,10837,7313,5903,2501,13508,Tag0,unknown
