timestampMs,poorSignal,eegRawValue,eegRawValueVolts,attention,meditation,blinkStrength,delta,theta,alphaLow,alphaHigh,betaLow,betaHigh,gammaLow,gammaMid,tagEvent,location
1545004082712,0,69,1.51611328125E-5,34,43,45,433111,38909,22096,9564,8062,6936,6258,1662,Tag0,unknown
1545004082725,0,69,1.51611328125E-5,34,43,45,433111,38909,22096,9564,8062,6936,6258,1662,Tag0,unknown
1545004082726,0,65,1.42822265625E-5,34,43,45,433111,38909,22096,9564,8062,6936,6258,1662,Tag0,unknown
1545004082726,0,67,1.4721679687500002E-5,34,43,45,433111,38909,22096,9564,8062,6936,6258,1662,Tag0,unknown
1545004082726,0,74,1.6259765625E-5,34,43,45,433111,38909,22096,9564,8062,6936,6258,1662,Tag0,unknown
1545004082726,0,80,1.7578125E-5,34,43,45,433111,38909,22096,9564,8062,6936,6258,1662,Tag0,unknown
1545004082726,0,73,1.6040039062500002E-5,34,43,45,433111,38909,22096,9564,8062,6936,6258,1662,Tag0,unknown
1545004082727,0,64,1.40625E-5,34,43,45,433111,38909,22096,9564,8062,6936,6258,1662,Tag0,unknown
1545004082727,0,53,1.1645507812500002E-5,34,43,45,433111,38909,22096,9564,8062,6936,6258,1662,Tag0,unknown
1545004082727,0,53,1.1645507812500002E-5,34,43,45,433111,38909,22096,9564,8062,6936,6258,1662,Tag0,unknown
1545004082727,0,65,1.42822265625E-5,34,43,45,433111,38909,22096,9564,8062,6936,6258,1662,Tag0,unknown
1545004082727,0,59,1.29638671875E-5,34,43,45,433111,38909,22096,9564,8062,6936,6258,1662,Tag0,unknown
1545004082727,0,45,9.8876953125E-6,34,43,45,433111,38909,22096,9564,8062,6936,6258,1662,Tag0,unknown
1545004082727,0,40,8.7890625E-6,34,43,45,433111,38909,22096,9564,8062,6936,6258,1662,Tag0,unknown
1545004082728,0,43,9.448242187500001E-6,34,43,45,433111,38909,22096,9564,8062,6936,6258,1662,Tag0,unknown
1545004082728,0,49,1.07666015625E-5,34,43,45,433111,38909,22096,9564,8062,6936,6258,1662,Tag0,unknown
1545004082728,0,49,1.07666015625E-5,34,43,45,433111,38909,22096,9564,8062,6936,6258,1662,Tag0,unknown
1545004082728,0,54,1.1865234375000001E-5,34,43,45,433111,38909,22096,9564,8062,6936,6258,1662,Tag0,unknown
1545004082728,0,54,1.1865234375000001E-5,34,43,45,433111,38909,22096,9564,8062,6936,6258,1662,Tag0,unknown
1545004082728,0,44,9.66796875E-6,34,43,45,433111,38909,22096,9564,8062,6936,6258,1662,Tag0,unknown
1545004082728,0,38,8.349609375E-6,34,43,45,433111,38909,22096,9564,8062,6936,6258,1662,Tag0,unknown
1545004082729,0,37,8.1298828125E-6,34,43,45,433111,38909,22096,9564,8062,6936,6258,1662,Tag0,unknown
1545004082729,0,35,7.6904296875E-6,34,43,45,433111,38909,22096,9564,8062,6936,6258,1662,Tag0,unknown
1545004082729,0,40,8.7890625E-6,34,43,45,433111,38909,22096,9564,8062,6936,6258,1662,Tag0,unknown
1545004082729,0,50,1.0986328125E-5,34,43,45,433111,38909,22096,9564,8062,6936,6258,1662,Tag0,unknown
1545004082729,0,40,8.7890625E-6,34,43,45,433111,38909,22096,9564,8062,6936,6258,1662,Tag0,unknown
1545004082729,0,20,4.39453125E-6,34,43,45,433111,38909,22096,9564,8062,6936,6258,1662,Tag0,unknown
1545004082729,0,7,1.5380859375E-6,34,43,45,433111,38909,22096,9564,8062,6936,6258,1662,Tag0,unknown
1545004082730,0,0,0.0,34,43,45,433111,38909,22096,9564,8062,6936,6258,1662,Tag0,unknown
1545004082730,0,4,8.7890625E-7,34,43,45,433111,38909,22096,9564,8062,6936,6258,1662,Tag0,unknown
1545004082730,0,20,4.39453125E-6,34,43,45,433111,38909,22096,9564,8062,6936,6258,1662,Tag0,unknown
1545004082730,0,34,7.4707031250000005E-6,34,43,45,433111,38909,22096,9564,8062,6936,6258,1662,Tag0,unknown
1545004082730,0,32,7.03125E-6,34,43,45,433111,38909,22096,9564,8062,6936,6258,1662,Tag0,unknown
1545004082730,0,21,4.614257812500001E-6,34,43,45,433111,38909,22096,9564,8062,6936,6258,1662,Tag0,unknown
1545004082779,0,21,4.614257812500001E-6,34,43,45,433111,38909,22096,9564,8062,6936,6258,1662,Tag0,unknown
1545004082792,0,20,4.39453125E-6,34,43,45,433111,38909,22096,9564,8062,6936,6258,1662,Tag0,unknown
1545004082792,0,32,7.03125E-6,34,43,45,433111,38909,22096,9564,8062,6936,6258,1662,Tag0,unknown
1545004082793,0,43,9.448242187500001E-6,34,43,45,433111,38909,22096,9564,8062,6936,6258,1662,Tag0,unknown
1545004082793,0,57,1.2524414062500001E-5,34,43,45,433111,38909,22096,9564,8062,6936,6258,1662,Tag0,unknown
1545004082793,0,67,1.4721679687500002E-5,34,43,45,433111,38909,22096,9564,8062,6936,6258,1662,Tag0,unknown
1545004082794,0,72,1.58203125E-5,34,43,45,433111,38909,22096,9564,8062,6936,6258,1662,Tag0,unknown
1545004082794,0,68,1.4941406250000001E-5,34,43,45,433111,38909,22096,9564,8062,6936,6258,1662,Tag0,unknown
1545004082794,0,56,1.23046875E-5,34,43,45,433111,38909,22096,9564,8062,6936,6258,1662,Tag0,unknown
1545004082794,0,49,1.07666015625E-5,34,43,45,433111,38909,22096,9564,8062,6936,6258,1662,Tag0,unknown
1545004082794,0,49,1.07666015625E-5,34,43,45,433111,38909,22096,9564,8062,6936,6258,1662,Tag0,unknown
1545004082795,0,54,1.1865234375000001E-5,34,43,45,433111,38909,22096,9564,8062,6936,6258,1662,Tag0,unknown
1545004082795,0,57,1.2524414062500001E-5,34,43,45,433111,38909,22096,9564,8062,6936,6258,1662,Tag0,unknown
1545004082795,0,58,1.2744140625E-5,34,43,45,433111,38909,22096,9564,8062,6936,6258,1662,Tag0,unknown
1545004082795,0,52,1.142578125E-5,34,43,45,433111,38909,22096,9564,8062,6936,6258,1662,Tag0,unknown
1545004082795,0,38,8.349609375E-6,34,43,45,433111,38909,22096,9564,8062,6936,6258,1662,Tag0,unknown
1545004082795,0,26,5.712890625E-6,34,43,45,433111,38909,22096,9564,8062,6936,6258,1662,Tag0,unknown
1545004082796,0,24,5.2734375E-6,34,43,45,433111,38909,22096,9564,8062,6936,6258,1662,Tag0,unknown
1545004082796,0,24,5.2734375E-6,34,43,45,433111,38909,22096,9564,8062,6936,6258,1662,Tag0,unknown
1545004082796,0,24,5.2734375E-6,34,43,45,433111,38909,22096,9564,8062,6936,6258,1662,Tag0,unknown
1545004082796,0,19,4.1748046875E-6,34,43,45,433111,38909,22096,9564,8062,6936,6258,1662,Tag0,unknown
1545004082796,0,8,1.7578125E-6,34,43,45,433111,38909,22096,9564,8062,6936,6258,1662,Tag0,unknown
1545004082796,0,7,1.5380859375E-6,34,43,45,433111,38909,22096,9564,8062,6936,6258,1662,Tag0,unknown
1545004082796,0,18,3.955078125E-6,34,43,45,433111,38909,22096,9564,8062,6936,6258,1662,Tag0,unknown
1545004082797,0,26,5.712890625E-6,34,43,45,433111,38909,22096,9564,8062,6936,6258,1662,Tag0,unknown
1545004082797,0,35,7.6904296875E-6,34,43,45,433111,38909,22096,9564,8062,6936,6258,1662,Tag0,unknown
1545004082797,0,44,9.66796875E-6,34,43,45,433111,38909,22096,9564,8062,6936,6258,1662,Tag0,unknown
1545004082797,0,51,1.1206054687499999E-5,34,43,45,433111,38909,22096,9564,8062,6936,6258,1662,Tag0,unknown
1545004082797,0,52,1.142578125E-5,34,43,45,433111,38909,22096,9564,8062,6936,6258,1662,Tag0,unknown
1545004082797,0,48,1.0546875E-5,34,43,45,433111,38909,22096,9564,8062,6936,6258,1662,Tag0,unknown
1545004082797,0,32,7.03125E-6,34,43,45,433111,38909,22096,9564,8062,6936,6258,1662,Tag0,unknown
1545004082798,0,25,5.4931640625E-6,34,43,45,433111,38909,22096,9564,8062,6936,6258,1662,Tag0,unknown
1545004082798,0,36,7.91015625E-6,34,43,45,433111,38909,22096,9564,8062,6936,6258,1662,Tag0,unknown
1545004082809,0,45,9.8876953125E-6,34,43,45,433111,38909,22096,9564,8062,6936,6258,1662,Tag0,unknown
1545004082844,0,45,9.8876953125E-6,34,43,45,433111,38909,22096,9564,8062,6936,6258,1662,Tag0,unknown
1545004082858,0,53,1.1645507812500002E-5,34,43,45,433111,38909,22096,9564,8062,6936,6258,1662,Tag0,unknown
1545004082859,0,71,1.56005859375E-5,34,43,45,433111,38909,22096,9564,8062,6936,6258,1662,Tag0,unknown
1545004082859,0,75,1.64794921875E-5,34,43,45,433111,38909,22096,9564,8062,6936,6258,1662,Tag0,unknown
1545004082859,0,71,1.56005859375E-5,34,43,45,433111,38909,22096,9564,8062,6936,6258,1662,Tag0,unknown
1545004082859,0,72,1.58203125E-5,34,43,45,433111,38909,22096,9564,8062,6936,6258,1662,Tag0,unknown
1545004082859,0,73,1.6040039062500002E-5,34,43,45,433111,38909,22096,9564,8062,6936,6258,1662,Tag0,unknown
1545004082859,0,72,1.58203125E-5,34,43,45,433111,38909,22096,9564,8062,6936,6258,1662,Tag0,unknown
1545004082860,0,64,1.40625E-5,34,43,45,433111,38909,22096,9564,8062,6936,6258,1662,Tag0,unknown
1545004082860,0,51,1.1206054687499999E-5,34,43,45,433111,38909,22096,9564,8062,6936,6258,1662,Tag0,unknown
1545004082860,0,42,9.228515625000002E-6,34,43,45,433111,38909,22096,9564,8062,6936,6258,1662,Tag0,unknown
1545004082860,0,36,7.91015625E-6,34,43,45,433111,38909,22096,9564,8062,6936,6258,1662,Tag0,unknown
1545004082860,0,11,2.4169921875E-6,34,43,45,433111,38909,22096,9564,8062,6936,6258,1662,Tag0,unknown
1545004082860,0,-268,-5.8886718750000006E-5,34,43,45,433111,38909,22096,9564,8062,6936,6258,1662,Tag0,unknown
1545004082861,0,-268,-5.8886718750000006E-5,34,43,45,433111,38909,22096,9564,8062,6936,6258,1662,Tag0,unknown
1545004082861,0,3,6.591796875E-7,34,43,45,433111,38909,22096,9564,8062,6936,6258,1662,Tag0,unknown
1545004082861,0,33,7.2509765625E-6,34,43,45,433111,38909,22096,9564,8062,6936,6258,1662,Tag0,unknown
1545004082861,0,42,9.228515625000002E-6,34,43,45,433111,38909,22096,9564,8062,6936,6258,1662,Tag0,unknown
1545004082861,0,22,4.833984375E-6,34,43,45,433111,38909,22096,9564,8062,6936,6258,1662,Tag0,unknown
1545004082861,0,12,2.63671875E-6,34,43,45,433111,38909,22096,9564,8062,6936,6258,1662,Tag0,unknown
1545004082861,0,26,5.712890625E-6,34,43,45,433111,38909,22096,9564,8062,6936,6258,1662,Tag0,unknown
1545004082861,0,48,1.0546875E-5,34,43,45,433111,38909,22096,9564,8062,6936,6258,1662,Tag0,unknown
1545004082862,0,59,1.29638671875E-5,34,43,45,433111,38909,22096,9564,8062,6936,6258,1662,Tag0,unknown
1545004082862,0,66,1.4501953125E-5,34,43,45,433111,38909,22096,9564,8062,6936,6258,1662,Tag0,unknown
1545004082862,0,59,1.29638671875E-5,34,43,45,433111,38909,22096,9564,8062,6936,6258,1662,Tag0,unknown
1545004082862,0,39,8.5693359375E-6,34,43,45,433111,38909,22096,9564,8062,6936,6258,1662,Tag0,unknown
1545004082862,0,18,3.955078125E-6,34,43,45,433111,38909,22096,9564,8062,6936,6258,1662,Tag0,unknown
1545004082862,0,10,2.197265625E-6,34,43,45,433111,38909,22096,9564,8062,6936,6258,1662,Tag0,unknown
1545004082863,0,11,2.4169921875E-6,34,43,45,433111,38909,22096,9564,8062,6936,6258,1662,Tag0,unknown
1545004082863,0,13,2.8564453125E-6,34,43,45,433111,38909,22096,9564,8062,6936,6258,1662,Tag0,unknown
1545004082863,0,25,5.4931640625E-6,34,43,45,433111,38909,22096,9564,8062,6936,6258,1662,Tag0,unknown
1545004082863,0,41,9.008789062499999E-6,34,43,45,433111,38909,22096,9564,8062,6936,6258,1662,Tag0,unknown
1545004082863,0,48,1.0546875E-5,34,43,45,433111,38909,22096,9564,8062,6936,6258,1662,Tag0,unknown
1545004082863,0,43,9.448242187500001E-6,34,43,45,433111,38909,22096,9564,8062,6936,6258,1662,Tag0,unknown
1545004082913,0,43,9.448242187500001E-6,34,43,45,433111,38909,22096,9564,8062,6936,6258,1662,Tag0,unknown
1545004082914,0,41,9.008789062499999E-6,34,43,45,433111,38909,22096,9564,8062,6936,6258,1662,Tag0,unknown
1545004082914,0,43,9.448242187500001E-6,34,43,45,433111,38909,22096,9564,8062,6936,6258,1662,Tag0,unknown
1545004082914,0,42,9.228515625000002E-6,34,43,45,433111,38909,22096,9564,8062,6936,6258,1662,Tag0,unknown
1545004082925,0,50,1.0986328125E-5,34,43,45,433111,38909,22096,9564,8062,6936,6258,1662,Tag0,unknown
1545004082925,0,68,1.4941406250000001E-5,34,43,45,433111,38909,22096,9564,8062,6936,6258,1662,Tag0,unknown
1545004082926,0,83,1.82373046875E-5,34,43,45,433111,38909,22096,9564,8062,6936,6258,1662,Tag0,unknown
1545004082926,0,81,1.77978515625E-5,34,43,45,433111,38909,22096,9564,8062,6936,6258,1662,Tag0,unknown
1545004082926,0,80,1.7578125E-5,34,43,45,433111,38909,22096,9564,8062,6936,6258,1662,Tag0,unknown
1545004082926,0,83,1.82373046875E-5,34,43,45,433111,38909,22096,9564,8062,6936,6258,1662,Tag0,unknown
1545004082926,0,75,1.64794921875E-5,34,43,45,433111,38909,22096,9564,8062,6936,6258,1662,Tag0,unknown
1545004082926,0,57,1.2524414062500001E-5,34,43,45,433111,38909,22096,9564,8062,6936,6258,1662,Tag0,unknown
1545004082927,0,42,9.228515625000002E-6,34,43,45,433111,38909,22096,9564,8062,6936,6258,1662,Tag0,unknown
1545004082927,0,43,9.448242187500001E-6,34,43,45,433111,38909,22096,9564,8062,6936,6258,1662,Tag0,unknown
1545004082927,0,39,8.5693359375E-6,34,43,45,433111,38909,22096,9564,8062,6936,6258,1662,Tag0,unknown
1545004082927,0,27,5.9326171875000005E-6,34,43,45,433111,38909,22096,9564,8062,6936,6258,1662,Tag0,unknown
1545004082927,0,33,7.2509765625E-6,34,43,45,433111,38909,22096,9564,8062,6936,6258,1662,Tag0,unknown
1545004082927,0,35,7.6904296875E-6,34,43,45,433111,38909,22096,9564,8062,6936,6258,1662,Tag0,unknown
1545004082927,0,24,5.2734375E-6,34,43,45,433111,38909,22096,9564,8062,6936,6258,1662,Tag0,unknown
1545004082928,0,18,3.955078125E-6,34,43,45,433111,38909,22096,9564,8062,6936,6258,1662,Tag0,unknown
1545004082928,0,20,4.39453125E-6,34,43,45,433111,38909,22096,9564,8062,6936,6258,1662,Tag0,unknown
1545004082928,0,33,7.2509765625E-6,34,43,45,433111,38909,22096,9564,8062,6936,6258,1662,Tag0,unknown
1545004082928,0,48,1.0546875E-5,34,43,45,433111,38909,22096,9564,8062,6936,6258,1662,Tag0,unknown
1545004082928,0,53,1.1645507812500002E-5,34,43,45,433111,38909,22096,9564,8062,6936,6258,1662,Tag0,unknown
1545004082928,0,51,1.1206054687499999E-5,34,43,45,433111,38909,22096,9564,8062,6936,6258,1662,Tag0,unknown
1545004082928,0,48,1.0546875E-5,34,43,45,433111,38909,22096,9564,8062,6936,6258,1662,Tag0,unknown
1545004082929,0,43,9.448242187500001E-6,34,43,45,433111,38909,22096,9564,8062,6936,6258,1662,Tag0,unknown
1545004082929,0,34,7.4707031250000005E-6,34,43,45,433111,38909,22096,9564,8062,6936,6258,1662,Tag0,unknown
1545004082929,0,27,5.9326171875000005E-6,34,43,45,433111,38909,22096,9564,8062,6936,6258,1662,Tag0,unknown
1545004082929,0,35,7.6904296875E-6,34,43,45,433111,38909,22096,9564,8062,6936,6258,1662,Tag0,unknown
1545004082929,0,38,8.349609375E-6,34,43,45,433111,38909,22096,9564,8062,6936,6258,1662,Tag0,unknown
1545004082929,0,39,8.5693359375E-6,34,43,45,433111,38909,22096,9564,8062,6936,6258,1662,Tag0,unknown
1545004082929,0,42,9.228515625000002E-6,34,43,45,433111,38909,22096,9564,8062,6936,6258,1662,Tag0,unknown
1545004082976,0,45,9.8876953125E-6,34,43,45,433111,38909,22096,9564,8062,6936,6258,1662,Tag0,unknown
1545004082992,0,56,1.23046875E-5,34,43,45,433111,38909,22096,9564,8062,6936,6258,1662,Tag0,unknown
1545004082992,0,71,1.56005859375E-5,34,43,45,433111,38909,22096,9564,8062,6936,6258,1662,Tag0,unknown
1545004082992,0,82,1.8017578124999998E-5,34,43,45,433111,38909,22096,9564,8062,6936,6258,1662,Tag0,unknown
1545004082992,0,86,1.8896484375000003E-5,34,43,45,433111,38909,22096,9564,8062,6936,6258,1662,Tag0,unknown
1545004082993,0,83,1.82373046875E-5,34,43,45,433111,38909,22096,9564,8062,6936,6258,1662,Tag0,unknown
1545004082993,0,67,1.4721679687500002E-5,34,43,45,433111,38909,22096,9564,8062,6936,6258,1662,Tag0,unknown
1545004082993,0,43,9.448242187500001E-6,34,43,45,433111,38909,22096,9564,8062,6936,6258,1662,Tag0,unknown
1545004082993,0,22,4.833984375E-6,34,43,45,433111,38909,22096,9564,8062,6936,6258,1662,Tag0,unknown
1545004082993,0,7,1.5380859375E-6,34,43,45,433111,38909,22096,9564,8062,6936,6258,1662,Tag0,unknown
1545004082993,0,9,1.9775390625E-6,34,43,45,433111,38909,22096,9564,8062,6936,6258,1662,Tag0,unknown
1545004082993,0,16,3.515625E-6,34,43,45,433111,38909,22096,9564,8062,6936,6258,1662,Tag0,unknown
1545004082994,0,16,3.515625E-6,34,43,45,433111,38909,22096,9564,8062,6936,6258,1662,Tag0,unknown
1545004082994,0,21,4.614257812500001E-6,34,43,45,433111,38909,22096,9564,8062,6936,6258,1662,Tag0,unknown
1545004082994,0,34,7.4707031250000005E-6,34,43,45,433111,38909,22096,9564,8062,6936,6258,1662,Tag0,unknown
1545004082994,0,45,9.8876953125E-6,34,43,45,433111,38909,22096,9564,8062,6936,6258,1662,Tag0,unknown
1545004082994,0,55,1.20849609375E-5,34,43,45,433111,38909,22096,9564,8062,6936,6258,1662,Tag0,unknown
1545004082994,0,50,1.0986328125E-5,34,43,45,433111,38909,22096,9564,8062,6936,6258,1662,Tag0,unknown
1545004082995,0,39,8.5693359375E-6,34,43,45,433111,38909,22096,9564,8062,6936,6258,1662,Tag0,unknown
1545004082995,0,39,8.5693359375E-6,34,43,45,433111,38909,22096,9564,8062,6936,6258,1662,Tag0,unknown
1545004082995,0,43,9.448242187500001E-6,34,43,45,433111,38909,22096,9564,8062,6936,6258,1662,Tag0,unknown
1545004082995,0,38,8.349609375E-6,34,43,45,433111,38909,22096,9564,8062,6936,6258,1662,Tag0,unknown
1545004082995,0,32,7.03125E-6,34,43,45,433111,38909,22096,9564,8062,6936,6258,1662,Tag0,unknown
1545004082995,0,24,5.2734375E-6,34,43,45,433111,38909,22096,9564,8062,6936,6258,1662,Tag0,unknown
1545004082995,0,26,5.712890625E-6,34,43,45,433111,38909,22096,9564,8062,6936,6258,1662,Tag0,unknown
1545004082996,0,35,7.6904296875E-6,34,43,45,433111,38909,22096,9564,8062,6936,6258,1662,Tag0,unknown
1545004082996,0,35,7.6904296875E-6,34,43,45,433111,38909,22096,9564,8062,6936,6258,1662,Tag0,unknown
1545004082996,0,26,5.712890625E-6,34,43,45,433111,38909,22096,9564,8062,6936,6258,1662,Tag0,unknown
1545004082996,0,22,4.833984375E-6,34,43,45,433111,38909,22096,9564,8062,6936,6258,1662,Tag0,unknown
1545004082997,0,22,4.833984375E-6,34,43,45,433111,38909,22096,9564,8062,6936,6258,1662,Tag0,unknown
1545004082997,0,32,7.03125E-6,34,43,45,433111,38909,22096,9564,8062,6936,6258,1662,Tag0,unknown
1545004082997,0,45,9.8876953125E-6,34,43,45,433111,38909,22096,9564,8062,6936,6258,1662,Tag0,unknown
1545004082997,0,60,1.318359375E-5,34,43,45,433111,38909,22096,9564,8062,6936,6258,1662,Tag0,unknown
1545004082997,0,69,1.51611328125E-5,34,43,45,433111,38909,22096,9564,8062,6936,6258,1662,Tag0,unknown
1545004083039,0,75,1.64794921875E-5,34,43,45,433111,38909,22096,9564,8062,6936,6258,1662,Tag0,unknown
1545004083058,0,82,1.8017578124999998E-5,34,43,45,433111,38909,22096,9564,8062,6936,6258,1662,Tag0,unknown
1545004083059,0,77,1.69189453125E-5,34,43,45,433111,38909,22096,9564,8062,6936,6258,1662,Tag0,unknown
1545004083059,0,81,1.77978515625E-5,34,43,45,433111,38909,22096,9564,8062,6936,6258,1662,Tag0,unknown
1545004083059,0,91,1.99951171875E-5,34,43,45,433111,38909,22096,9564,8062,6936,6258,1662,Tag0,unknown
1545004083059,0,97,2.13134765625E-5,34,43,45,433111,38909,22096,9564,8062,6936,6258,1662,Tag0,unknown
1545004083059,0,86,1.8896484375000003E-5,34,43,45,433111,38909,22096,9564,8062,6936,6258,1662,Tag0,unknown
1545004083059,0,70,1.5380859375E-5,34,43,45,433111,38909,22096,9564,8062,6936,6258,1662,Tag0,unknown
1545004083060,0,64,1.40625E-5,34,43,45,433111,38909,22096,9564,8062,6936,6258,1662,Tag0,unknown
1545004083060,0,71,1.56005859375E-5,34,43,45,433111,38909,22096,9564,8062,6936,6258,1662,Tag0,unknown
1545004083060,0,84,1.8457031250000004E-5,34,43,45,433111,38909,22096,9564,8062,6936,6258,1662,Tag0,unknown
1545004083060,0,83,1.82373046875E-5,34,43,45,433111,38909,22096,9564,8062,6936,6258,1662,Tag0,unknown
1545004083060,0,75,1.64794921875E-5,34,43,45,433111,38909,22096,9564,8062,6936,6258,1662,Tag0,unknown
1545004083060,0,74,1.6259765625E-5,34,43,45,433111,38909,22096,9564,8062,6936,6258,1662,Tag0,unknown
1545004083060,0,75,1.64794921875E-5,34,43,45,433111,38909,22096,9564,8062,6936,6258,1662,Tag0,unknown
1545004083060,0,71,1.56005859375E-5,34,43,45,433111,38909,22096,9564,8062,6936,6258,1662,Tag0,unknown
1545004083061,0,65,1.42822265625E-5,34,43,45,433111,38909,22096,9564,8062,6936,6258,1662,Tag0,unknown
1545004083061,0,54,1.1865234375000001E-5,34,43,45,433111,38909,22096,9564,8062,6936,6258,1662,Tag0,unknown
1545004083061,0,44,9.66796875E-6,34,43,45,433111,38909,22096,9564,8062,6936,6258,1662,Tag0,unknown
1545004083061,0,39,8.5693359375E-6,34,43,45,433111,38909,22096,9564,8062,6936,6258,1662,Tag0,unknown
1545004083061,0,37,8.1298828125E-6,34,43,45,433111,38909,22096,9564,8062,6936,6258,1662,Tag0,unknown
1545004083061,0,33,7.2509765625E-6,34,43,45,433111,38909,22096,9564,8062,6936,6258,1662,Tag0,unknown
1545004083061,0,8,1.7578125E-6,34,43,45,433111,38909,22096,9564,8062,6936,6258,1662,Tag0,unknown
1545004083062,0,-267,-5.86669921875E-5,34,43,45,433111,38909,22096,9564,8062,6936,6258,1662,Tag0,unknown
1545004083062,0,-263,-5.7788085937500005E-5,34,43,45,433111,38909,22096,9564,8062,6936,6258,1662,Tag0,unknown
1545004083062,0,-261,-5.73486328125E-5,34,43,45,433111,38909,22096,9564,8062,6936,6258,1662,Tag0,unknown
1545004083062,0,-274,-6.0205078124999997E-5,34,43,45,433111,38909,22096,9564,8062,6936,6258,1662,Tag0,unknown
1545004083062,0,-278,-6.108398437500001E-5,34,43,45,433111,38909,22096,9564,8062,6936,6258,1662,Tag0,unknown
1545004083062,0,-263,-5.7788085937500005E-5,34,43,45,433111,38909,22096,9564,8062,6936,6258,1662,Tag0,unknown
1545004083063,0,12,2.63671875E-6,34,43,45,433111,38909,22096,9564,8062,6936,6258,1662,Tag0,unknown
1545004083063,0,22,4.833984375E-6,34,43,45,433111,38909,22096,9564,8062,6936,6258,1662,Tag0,unknown
1545004083063,0,19,4.1748046875E-6,34,43,45,433111,38909,22096,9564,8062,6936,6258,1662,Tag0,unknown
1545004083063,0,22,4.833984375E-6,34,43,45,433111,38909,22096,9564,8062,6936,6258,1662,Tag0,unknown
1545004083105,0,23,5.0537109375E-6,34,43,45,433111,38909,22096,9564,8062,6936,6258,1662,Tag0,unknown
1545004083125,0,23,5.0537109375E-6,34,43,45,433111,38909,22096,9564,8062,6936,6258,1662,Tag0,unknown
1545004083125,0,27,5.9326171875000005E-6,34,43,45,433111,38909,22096,9564,8062,6936,6258,1662,Tag0,unknown
1545004083126,0,48,1.0546875E-5,34,43,45,433111,38909,22096,9564,8062,6936,6258,1662,Tag0,unknown
1545004083126,0,68,1.4941406250000001E-5,34,43,45,433111,38909,22096,9564,8062,6936,6258,1662,Tag0,unknown
1545004083126,0,67,1.4721679687500002E-5,34,43,45,433111,38909,22096,9564,8062,6936,6258,1662,Tag0,unknown
1545004083126,0,42,9.228515625000002E-6,34,43,45,433111,38909,22096,9564,8062,6936,6258,1662,Tag0,unknown
1545004083126,0,28,6.15234375E-6,34,43,45,433111,38909,22096,9564,8062,6936,6258,1662,Tag0,unknown
1545004083126,0,38,8.349609375E-6,34,43,45,433111,38909,22096,9564,8062,6936,6258,1662,Tag0,unknown
1545004083127,0,50,1.0986328125E-5,34,43,45,433111,38909,22096,9564,8062,6936,6258,1662,Tag0,unknown
1545004083127,0,57,1.2524414062500001E-5,34,43,45,433111,38909,22096,9564,8062,6936,6258,1662,Tag0,unknown
1545004083127,0,58,1.2744140625E-5,34,43,45,433111,38909,22096,9564,8062,6936,6258,1662,Tag0,unknown
1545004083127,0,51,1.1206054687499999E-5,34,43,45,433111,38909,22096,9564,8062,6936,6258,1662,Tag0,unknown
1545004083127,0,19,4.1748046875E-6,34,43,45,433111,38909,22096,9564,8062,6936,6258,1662,Tag0,unknown
1545004083127,0,-283,-6.218261718750001E-5,34,43,45,433111,38909,22096,9564,8062,6936,6258,1662,Tag0,unknown
1545004083127,0,-309,-6.78955078125E-5,34,43,45,433111,38909,22096,9564,8062,6936,6258,1662,Tag0,unknown
1545004083128,0,-280,-6.15234375E-5,34,43,45,433111,38909,22096,9564,8062,6936,6258,1662,Tag0,unknown
1545004083128,0,43,9.448242187500001E-6,34,43,45,433111,38909,22096,9564,8062,6936,6258,1662,Tag0,unknown
1545004083128,0,118,2.5927734375E-5,34,43,45,433111,38909,22096,9564,8062,6936,6258,1662,Tag0,unknown
1545004083128,0,-124,-2.724609375E-5,34,43,45,433111,38909,22096,9564,8062,6936,6258,1662,Tag0,unknown
1545004083128,0,99,2.1752929687500003E-5,34,43,45,433111,38909,22096,9564,8062,6936,6258,1662,Tag0,unknown
1545004083128,0,80,1.7578125E-5,34,43,45,433111,38909,22096,9564,8062,6936,6258,1662,Tag0,unknown
1545004083128,0,105,2.30712890625E-5,34,43,45,433111,38909,22096,9564,8062,6936,6258,1662,Tag0,unknown
1545004083129,0,-86,-1.8896484375000003E-5,34,43,45,433111,38909,22096,9564,8062,6936,6258,1662,Tag0,unknown
1545004083129,0,-29,-6.3720703125E-6,34,43,45,433111,38909,22096,9564,8062,6936,6258,1662,Tag0,unknown
1545004083129,0,-30,-6.591796875E-6,34,43,45,433111,38909,22096,9564,8062,6936,6258,1662,Tag0,unknown
1545004083129,0,-31,-6.8115234375E-6,34,43,45,433111,38909,22096,9564,8062,6936,6258,1662,Tag0,unknown
1545004083129,0,274,6.0205078124999997E-5,34,43,45,433111,38909,22096,9564,8062,6936,6258,1662,Tag0,unknown
1545004083129,0,315,6.92138671875E-5,34,43,45,433111,38909,22096,9564,8062,6936,6258,1662,Tag0,unknown
1545004083129,0,300,6.591796875E-5,34,43,45,433111,38909,22096,9564,8062,6936,6258,1662,Tag0,unknown
1545004083130,0,277,6.0864257812500005E-5,34,43,45,433111,38909,22096,9564,8062,6936,6258,1662,Tag0,unknown
1545004083130,0,308,6.767578125E-5,34,43,45,433111,38909,22096,9564,8062,6936,6258,1662,Tag0,unknown
1545004083130,0,369,8.10791015625E-5,34,43,45,433111,38909,22096,9564,8062,6936,6258,1662,Tag0,unknown
1545004083172,0,153,3.3618164062500004E-5,34,43,45,433111,38909,22096,9564,8062,6936,6258,1662,Tag0,unknown
1545004083191,0,171,3.75732421875E-5,34,43,45,433111,38909,22096,9564,8062,6936,6258,1662,Tag0,unknown
1545004083192,0,193,4.2407226562500005E-5,34,43,45,433111,38909,22096,9564,8062,6936,6258,1662,Tag0,unknown
1545004083192,0,221,4.85595703125E-5,34,43,45,433111,38909,22096,9564,8062,6936,6258,1662,Tag0,unknown
1545004083192,0,514,1.12939453125E-4,34,43,45,433111,38909,22096,9564,8062,6936,6258,1662,Tag0,unknown
1545004083193,0,544,1.1953125000000001E-4,34,43,45,433111,38909,22096,9564,8062,6936,6258,1662,Tag0,unknown
1545004083193,0,550,1.20849609375E-4,34,43,45,433111,38909,22096,9564,8062,6936,6258,1662,Tag0,unknown
1545004083193,0,537,1.179931640625E-4,34,43,45,433111,38909,22096,9564,8062,6936,6258,1662,Tag0,unknown
1545004083193,0,539,1.1843261718750001E-4,34,43,45,433111,38909,22096,9564,8062,6936,6258,1662,Tag0,unknown
1545004083193,0,564,1.2392578125E-4,34,43,45,433111,38909,22096,9564,8062,6936,6258,1662,Tag0,unknown
1545004083193,0,595,1.307373046875E-4,34,43,45,433111,38909,22096,9564,8062,6936,6258,1662,Tag0,unknown
1545004083193,0,613,1.3469238281250002E-4,34,43,45,433111,38909,22096,9564,8062,6936,6258,1662,Tag0,unknown
1545004083194,0,613,1.3469238281250002E-4,34,43,45,433111,38909,22096,9564,8062,6936,6258,1662,Tag0,unknown
1545004083194,0,600,1.318359375E-4,34,43,45,433111,38909,22096,9564,8062,6936,6258,1662,Tag0,unknown
1545004083194,0,577,1.2678222656250002E-4,34,43,45,433111,38909,22096,9564,8062,6936,6258,1662,Tag0,unknown
1545004083194,0,555,1.219482421875E-4,34,43,45,433111,38909,22096,9564,8062,6936,6258,1662,Tag0,unknown
1545004083194,0,561,1.232666015625E-4,34,43,45,433111,38909,22096,9564,8062,6936,6258,1662,Tag0,unknown
1545004083194,0,579,1.272216796875E-4,34,43,45,433111,38909,22096,9564,8062,6936,6258,1662,Tag0,unknown
1545004083195,0,588,1.2919921875E-4,34,43,45,433111,38909,22096,9564,8062,6936,6258,1662,Tag0,unknown
1545004083195,0,586,1.28759765625E-4,34,43,45,433111,38909,22096,9564,8062,6936,6258,1662,Tag0,unknown
1545004083195,0,576,1.265625E-4,34,43,45,433111,38909,22096,9564,8062,6936,6258,1662,Tag0,unknown
1545004083195,0,562,1.23486328125E-4,34,43,45,433111,38909,22096,9564,8062,6936,6258,1662,Tag0,unknown
1545004083195,0,555,1.219482421875E-4,34,43,45,433111,38909,22096,9564,8062,6936,6258,1662,Tag0,unknown
1545004083195,0,555,1.219482421875E-4,34,43,45,433111,38909,22096,9564,8062,6936,6258,1662,Tag0,unknown
1545004083195,0,552,1.212890625E-4,34,43,45,433111,38909,22096,9564,8062,6936,6258,1662,Tag0,unknown
1545004083196,0,538,1.1821289062499999E-4,34,43,45,433111,38909,22096,9564,8062,6936,6258,1662,Tag0,unknown
1545004083196,0,519,1.140380859375E-4,34,43,45,433111,38909,22096,9564,8062,6936,6258,1662,Tag0,unknown
1545004083196,0,248,5.44921875E-5,34,43,45,433111,38909,22096,9564,8062,6936,6258,1662,Tag0,unknown
1545004083196,0,244,5.361328125E-5,34,43,45,433111,38909,22096,9564,8062,6936,6258,1662,Tag0,unknown
1545004083196,0,244,5.361328125E-5,34,43,45,433111,38909,22096,9564,8062,6936,6258,1662,Tag0,unknown
1545004083196,0,237,5.2075195312500004E-5,34,43,45,433111,38909,22096,9564,8062,6936,6258,1662,Tag0,unknown
1545004083196,0,209,4.59228515625E-5,34,43,45,433111,38909,22096,9564,8062,6936,6258,1662,Tag0,unknown
1545004083197,0,179,3.93310546875E-5,34,43,45,433111,38909,22096,9564,8062,6936,6258,1662,Tag0,unknown
1545004083197,0,168,3.691406250000001E-5,34,43,45,433111,38909,22096,9564,8062,6936,6258,1662,Tag0,unknown
1545004083239,0,170,3.7353515625E-5,34,43,45,433111,38909,22096,9564,8062,6936,6258,1662,Tag0,unknown
1545004083239,0,152,3.33984375E-5,34,43,45,433111,38909,22096,9564,8062,6936,6258,1662,Tag0,unknown
1545004083239,0,380,8.349609375E-5,34,43,45,433111,38909,22096,9564,8062,6936,6258,1662,Tag0,unknown
1545004083239,0,363,7.97607421875E-5,34,43,45,433111,38909,22096,9564,8062,6936,6258,1662,Tag0,unknown
1545004083240,0,357,7.844238281250001E-5,34,43,45,433111,38909,22096,9564,8062,6936,6258,1662,Tag0,unknown
1545004083240,0,352,7.734375E-5,34,43,45,433111,38909,22096,9564,8062,6936,6258,1662,Tag0,unknown
1545004083260,0,342,7.5146484375E-5,34,43,45,433111,38909,22096,9564,8062,6936,6258,1662,Tag0,unknown
1545004083261,0,328,7.207031249999999E-5,34,43,45,433111,38909,22096,9564,8062,6936,6258,1662,Tag0,unknown
1545004083262,0,304,6.6796875E-5,34,43,45,433111,38909,22096,9564,8062,6936,6258,1662,Tag0,unknown
1545004083263,0,-6,-1.318359375E-6,34,43,45,433111,38909,22096,9564,8062,6936,6258,1662,Tag0,unknown
1545004083263,0,-59,-1.29638671875E-5,34,43,45,433111,38909,22096,9564,8062,6936,6258,1662,Tag0,unknown
1545004083263,0,-77,-1.69189453125E-5,34,43,45,433111,38909,22096,9564,8062,6936,6258,1662,Tag0,unknown
1545004083263,0,-78,-1.7138671875E-5,34,43,45,433111,38909,22096,9564,8062,6936,6258,1662,Tag0,unknown
1545004083263,0,-76,-1.669921875E-5,34,43,45,433111,38909,22096,9564,8062,6936,6258,1662,Tag0,unknown
1545004083264,0,-79,-1.7358398437500003E-5,34,43,45,433111,38909,22096,9564,8062,6936,6258,1662,Tag0,unknown
1545004083264,0,-95,-2.08740234375E-5,34,43,45,433111,38909,22096,9564,8062,6936,6258,1662,Tag0,unknown
1545004083264,0,-119,-2.6147460937500004E-5,34,43,45,433111,38909,22096,9564,8062,6936,6258,1662,Tag0,unknown
1545004083265,0,103,2.26318359375E-5,34,43,45,433111,38909,22096,9564,8062,6936,6258,1662,Tag0,unknown
1545004083265,0,66,1.4501953125E-5,34,43,45,433111,38909,22096,9564,8062,6936,6258,1662,Tag0,unknown
1545004083265,0,43,9.448242187500001E-6,34,43,45,433111,38909,22096,9564,8062,6936,6258,1662,Tag0,unknown
1545004083265,0,44,9.66796875E-6,34,43,45,433111,38909,22096,9564,8062,6936,6258,1662,Tag0,unknown
1545004083266,0,54,1.1865234375000001E-5,34,43,45,433111,38909,22096,9564,8062,6936,6258,1662,Tag0,unknown
1545004083266,0,34,7.4707031250000005E-6,34,43,45,433111,38909,22096,9564,8062,6936,6258,1662,Tag0,unknown
1545004083266,0,-282,-6.1962890625E-5,34,43,45,433111,38909,22096,9564,8062,6936,6258,1662,Tag0,unknown
1545004083266,0,-313,-6.87744140625E-5,34,43,45,433111,38909,22096,9564,8062,6936,6258,1662,Tag0,unknown
1545004083267,0,-298,-6.5478515625E-5,34,43,45,433111,38909,22096,9564,8062,6936,6258,1662,Tag0,unknown
1545004083267,0,-284,-6.240234375E-5,34,43,45,433111,38909,22096,9564,8062,6936,6258,1662,Tag0,unknown
1545004083267,0,-310,-6.8115234375E-5,34,43,45,433111,38909,22096,9564,8062,6936,6258,1662,Tag0,unknown
1545004083267,0,-346,-7.6025390625E-5,34,43,45,433111,38909,22096,9564,8062,6936,6258,1662,Tag0,unknown
1545004083267,0,-329,-7.229003906250001E-5,34,43,45,433111,38909,22096,9564,8062,6936,6258,1662,Tag0,unknown
1545004083268,0,-285,-6.26220703125E-5,34,43,45,433111,38909,22096,9564,8062,6936,6258,1662,Tag0,unknown
1545004083268,0,-258,-5.6689453125000004E-5,34,43,45,433111,38909,22096,9564,8062,6936,6258,1662,Tag0,unknown
1545004083268,0,3,6.591796875E-7,34,43,45,433111,38909,22096,9564,8062,6936,6258,1662,Tag0,unknown
1545004083268,0,-283,-6.218261718750001E-5,34,43,45,433111,38909,22096,9564,8062,6936,6258,1662,Tag0,unknown
1545004083269,0,-286,-6.2841796875E-5,34,43,45,433111,38909,22096,9564,8062,6936,6258,1662,Tag0,unknown
1545004083269,0,-263,-5.7788085937500005E-5,34,43,45,433111,38909,22096,9564,8062,6936,6258,1662,Tag0,unknown
1545004083269,0,-259,-5.69091796875E-5,34,43,45,433111,38909,22096,9564,8062,6936,6258,1662,Tag0,unknown
1545004083269,0,-264,-5.80078125E-5,34,43,45,433111,38909,22096,9564,8062,6936,6258,1662,Tag0,unknown
1545004083276,0,-263,-5.7788085937500005E-5,34,43,45,433111,38909,22096,9564,8062,6936,6258,1662,Tag0,unknown
1545004083276,0,22,4.833984375E-6,34,43,45,433111,38909,22096,9564,8062,6936,6258,1662,Tag0,unknown
1545004083276,0,61,1.34033203125E-5,34,43,45,433111,38909,22096,9564,8062,6936,6258,1662,Tag0,unknown
1545004083276,0,71,1.56005859375E-5,34,43,45,433111,38909,22096,9564,8062,6936,6258,1662,Tag0,unknown
1545004083277,0,39,8.5693359375E-6,34,43,45,433111,38909,22096,9564,8062,6936,6258,1662,Tag0,unknown
1545004083277,0,19,4.1748046875E-6,34,43,45,433111,38909,22096,9564,8062,6936,6258,1662,Tag0,unknown
1545004083277,0,16,3.515625E-6,34,43,45,433111,38909,22096,9564,8062,6936,6258,1662,Tag0,unknown
1545004083292,0,19,4.1748046875E-6,34,43,45,433111,38909,22096,9564,8062,6936,6258,1662,Tag0,unknown
1545004083293,0,21,4.614257812500001E-6,34,43,45,433111,38909,22096,9564,8062,6936,6258,1662,Tag0,unknown
1545004083293,0,19,4.1748046875E-6,34,43,45,433111,38909,22096,9564,8062,6936,6258,1662,Tag0,unknown
1545004083293,0,1,2.197265625E-7,34,43,45,433111,38909,22096,9564,8062,6936,6258,1662,Tag0,unknown
1545004083309,0,-266,-5.8447265625E-5,34,43,45,433111,38909,22096,9564,8062,6936,6258,1662,Tag0,unknown
1545004083309,0,-257,-5.64697265625E-5,34,43,45,433111,38909,22096,9564,8062,6936,6258,1662,Tag0,unknown
1545004083310,0,17,3.7353515625000003E-6,34,43,45,433111,38909,22096,9564,8062,6936,6258,1662,Tag0,unknown
1545004083310,0,7,1.5380859375E-6,34,43,45,433111,38909,22096,9564,8062,6936,6258,1662,Tag0,unknown
1545004083311,0,-277,-6.0864257812500005E-5,34,43,45,433111,38909,22096,9564,8062,6936,6258,1662,Tag0,unknown
1545004083311,0,-301,-6.613769531250001E-5,34,43,45,433111,38909,22096,9564,8062,6936,6258,1662,Tag0,unknown
1545004083311,0,-314,-6.8994140625E-5,34,43,45,433111,38909,22096,9564,8062,6936,6258,1662,Tag0,unknown
1545004083312,0,-311,-6.833496093750001E-5,34,43,45,433111,38909,22096,9564,8062,6936,6258,1662,Tag0,unknown
1545004083312,0,-284,-6.240234375E-5,34,43,45,433111,38909,22096,9564,8062,6936,6258,1662,Tag0,unknown
1545004083312,0,-273,-5.998535156250001E-5,34,43,45,433111,38909,22096,9564,8062,6936,6258,1662,Tag0,unknown
1545004083312,0,-298,-6.5478515625E-5,34,43,45,433111,38909,22096,9564,8062,6936,6258,1662,Tag0,unknown
1545004083312,0,-342,-7.5146484375E-5,34,43,45,433111,38909,22096,9564,8062,6936,6258,1662,Tag0,unknown
1545004083313,0,-130,-2.8564453125E-5,34,43,45,433111,38909,22096,9564,8062,6936,6258,1662,Tag0,unknown
1545004083326,0,-168,-3.691406250000001E-5,34,43,45,433111,38909,22096,9564,8062,6936,6258,1662,Tag0,unknown
1545004083326,0,-189,-4.15283203125E-5,34,43,45,433111,38909,22096,9564,8062,6936,6258,1662,Tag0,unknown
1545004083326,0,-186,-4.0869140625E-5,34,43,45,433111,38909,22096,9564,8062,6936,6258,1662,Tag0,unknown
1545004083326,0,-171,-3.75732421875E-5,34,43,45,433111,38909,22096,9564,8062,6936,6258,1662,Tag0,unknown
1545004083327,0,-162,-3.5595703125E-5,34,43,45,433111,38909,22096,9564,8062,6936,6258,1662,Tag0,unknown
1545004083327,0,-179,-3.93310546875E-5,34,43,45,433111,38909,22096,9564,8062,6936,6258,1662,Tag0,unknown
1545004083327,0,-219,-4.81201171875E-5,34,43,45,433111,38909,22096,9564,8062,6936,6258,1662,Tag0,unknown
1545004083350,0,-244,-5.361328125E-5,34,43,45,433111,38909,22096,9564,8062,6936,6258,1662,Tag0,unknown
1545004083351,0,-242,-5.3173828125000005E-5,34,43,45,433111,38909,22096,9564,8062,6936,6258,1662,Tag0,unknown
1545004083352,0,-219,-4.81201171875E-5,34,43,45,433111,38909,22096,9564,8062,6936,6258,1662,Tag0,unknown
1545004083353,0,-201,-4.41650390625E-5,34,43,45,433111,38909,22096,9564,8062,6936,6258,1662,Tag0,unknown
1545004083353,0,-205,-4.50439453125E-5,34,43,45,433111,38909,22096,9564,8062,6936,6258,1662,Tag0,unknown
1545004083354,0,-229,-5.03173828125E-5,34,43,45,433111,38909,22096,9564,8062,6936,6258,1662,Tag0,unknown
1545004083354,0,-254,-5.5810546875E-5,34,43,45,433111,38909,22096,9564,8062,6936,6258,1662,Tag0,unknown
1545004083354,0,-529,-1.162353515625E-4,34,43,45,433111,38909,22096,9564,8062,6936,6258,1662,Tag0,unknown
1545004083355,0,-538,-1.1821289062499999E-4,34,43,45,433111,38909,22096,9564,8062,6936,6258,1662,Tag0,unknown
1545004083355,0,-545,-1.197509765625E-4,34,43,45,433111,38909,22096,9564,8062,6936,6258,1662,Tag0,unknown
1545004083355,0,-553,-1.215087890625E-4,34,43,45,433111,38909,22096,9564,8062,6936,6258,1662,Tag0,unknown
1545004083355,0,-567,-1.245849609375E-4,34,43,45,433111,38909,22096,9564,8062,6936,6258,1662,Tag0,unknown
1545004083355,0,-583,-1.281005859375E-4,34,43,45,433111,38909,22096,9564,8062,6936,6258,1662,Tag0,unknown
1545004083359,0,-586,-1.28759765625E-4,34,43,45,433111,38909,22096,9564,8062,6936,6258,1662,Tag0,unknown
1545004083359,0,-573,-1.259033203125E-4,34,43,45,433111,38909,22096,9564,8062,6936,6258,1662,Tag0,unknown
1545004083360,0,-562,-1.23486328125E-4,34,43,45,433111,38909,22096,9564,8062,6936,6258,1662,Tag0,unknown
1545004083360,0,-553,-1.215087890625E-4,34,43,45,433111,38909,22096,9564,8062,6936,6258,1662,Tag0,unknown
1545004083360,0,-553,-1.215087890625E-4,34,43,45,433111,38909,22096,9564,8062,6936,6258,1662,Tag0,unknown
1545004083360,0,-557,-1.223876953125E-4,34,43,45,433111,38909,22096,9564,8062,6936,6258,1662,Tag0,unknown
1545004083378,0,-556,-1.2216796875000002E-4,34,43,45,433111,38909,22096,9564,8062,6936,6258,1662,Tag0,unknown
1545004083379,0,-545,-1.197509765625E-4,34,43,45,433111,38909,22096,9564,8062,6936,6258,1662,Tag0,unknown
1545004083379,0,-524,-1.1513671875E-4,34,43,45,433111,38909,22096,9564,8062,6936,6258,1662,Tag0,unknown
1545004083380,0,-525,-1.153564453125E-4,34,43,45,433111,38909,22096,9564,8062,6936,6258,1662,Tag0,unknown
1545004083380,0,-540,-1.1865234375E-4,34,43,45,433111,38909,22096,9564,8062,6936,6258,1662,Tag0,unknown
1545004083380,0,-563,-1.237060546875E-4,34,43,45,433111,38909,22096,9564,8062,6936,6258,1662,Tag0,unknown
1545004083380,0,-574,-1.2612304687500001E-4,34,43,45,433111,38909,22096,9564,8062,6936,6258,1662,Tag0,unknown
1545004083380,0,-583,-1.281005859375E-4,34,43,45,433111,38909,22096,9564,8062,6936,6258,1662,Tag0,unknown
1545004083381,0,-594,-1.3051757812500002E-4,34,43,45,433111,38909,22096,9564,8062,6936,6258,1662,Tag0,unknown
1545004083381,0,-600,-1.318359375E-4,34,43,45,433111,38909,22096,9564,8062,6936,6258,1662,Tag0,unknown
1545004083381,0,-598,-1.31396484375E-4,34,43,45,433111,38909,22096,9564,8062,6936,6258,1662,Tag0,unknown
1545004083393,0,-594,-1.3051757812500002E-4,34,43,45,433111,38909,22096,9564,8062,6936,6258,1662,Tag0,unknown
1545004083393,0,-595,-1.307373046875E-4,34,43,45,433111,38909,22096,9564,8062,6936,6258,1662,Tag0,unknown
1545004083393,0,-588,-1.2919921875E-4,34,43,45,433111,38909,22096,9564,8062,6936,6258,1662,Tag0,unknown
1545004083394,0,-577,-1.2678222656250002E-4,34,43,45,433111,38909,22096,9564,8062,6936,6258,1662,Tag0,unknown
1545004083394,0,-562,-1.23486328125E-4,34,43,45,433111,38909,22096,9564,8062,6936,6258,1662,Tag0,unknown
1545004083394,0,-550,-1.20849609375E-4,34,43,45,433111,38909,22096,9564,8062,6936,6258,1662,Tag0,unknown
1545004083395,0,-551,-1.210693359375E-4,34,43,45,433111,38909,22096,9564,8062,6936,6258,1662,Tag0,unknown
1545004083395,0,-555,-1.219482421875E-4,34,43,45,433111,38909,22096,9564,8062,6936,6258,1662,Tag0,unknown
1545004083395,0,-563,-1.237060546875E-4,34,43,45,433111,38909,22096,9564,8062,6936,6258,1662,Tag0,unknown
1545004083409,0,-565,-1.241455078125E-4,34,43,45,433111,38909,22096,9564,8062,6936,6258,1662,Tag0,unknown
1545004083409,0,-556,-1.2216796875000002E-4,34,43,45,433111,38909,22096,9564,8062,6936,6258,1662,Tag0,unknown
1545004083409,0,-550,-1.20849609375E-4,34,43,45,433111,38909,22096,9564,8062,6936,6258,1662,Tag0,unknown
1545004083410,0,-557,-1.223876953125E-4,34,43,45,433111,38909,22096,9564,8062,6936,6258,1662,Tag0,unknown
1545004083410,0,-566,-1.2436523437500002E-4,34,43,45,433111,38909,22096,9564,8062,6936,6258,1662,Tag0,unknown
1545004083410,0,-562,-1.23486328125E-4,34,43,45,433111,38909,22096,9564,8062,6936,6258,1662,Tag0,unknown
1545004083410,0,-545,-1.197509765625E-4,34,43,45,433111,38909,22096,9564,8062,6936,6258,1662,Tag0,unknown
1545004083428,0,-525,-1.153564453125E-4,34,43,45,433111,38909,22096,9564,8062,6936,6258,1662,Tag0,unknown
1545004083429,0,-526,-1.1557617187500001E-4,34,43,45,433111,38909,22096,9564,8062,6936,6258,1662,Tag0,unknown
1545004083430,0,-538,-1.1821289062499999E-4,34,43,45,433111,38909,22096,9564,8062,6936,6258,1662,Tag0,unknown
1545004083431,0,-541,-1.1887207031250001E-4,34,43,45,433111,38909,22096,9564,8062,6936,6258,1662,Tag0,unknown
1545004083431,0,-520,-1.142578125E-4,34,43,45,433111,38909,22096,9564,8062,6936,6258,1662,Tag0,unknown
1545004083431,0,-245,-5.38330078125E-5,34,43,45,433111,38909,22096,9564,8062,6936,6258,1662,Tag0,unknown
1545004083431,0,-250,-5.4931640625E-5,34,43,45,433111,38909,22096,9564,8062,6936,6258,1662,Tag0,unknown
1545004083431,0,-529,-1.162353515625E-4,34,43,45,433111,38909,22096,9564,8062,6936,6258,1662,Tag0,unknown
1545004083448,0,-546,-1.1997070312500001E-4,48,41,45,132030,5933,3504,362,8912,2090,1197,545,Tag0,unknown
1545004083448,0,-539,-1.1843261718750001E-4,48,41,45,132030,5933,3504,362,8912,2090,1197,545,Tag0,unknown
1545004083448,0,-530,-1.16455078125E-4,48,41,45,132030,5933,3504,362,8912,2090,1197,545,Tag0,unknown
1545004083449,0,-517,-1.135986328125E-4,48,41,45,132030,5933,3504,362,8912,2090,1197,545,Tag0,unknown
1545004083449,0,-244,-5.361328125E-5,48,41,45,132030,5933,3504,362,8912,2090,1197,545,Tag0,unknown
1545004083449,0,-228,-5.0097656250000005E-5,48,41,45,132030,5933,3504,362,8912,2090,1197,545,Tag0,unknown
1545004083449,0,-219,-4.81201171875E-5,48,41,45,132030,5933,3504,362,8912,2090,1197,545,Tag0,unknown
1545004083450,0,-226,-4.9658203125E-5,48,41,45,132030,5933,3504,362,8912,2090,1197,545,Tag0,unknown
1545004083450,0,-218,-4.7900390625E-5,48,41,45,132030,5933,3504,362,8912,2090,1197,545,Tag0,unknown
1545004083460,0,-212,-4.6582031250000006E-5,48,41,45,132030,5933,3504,362,8912,2090,1197,545,Tag0,unknown
1545004083460,0,-202,-4.4384765625000004E-5,48,41,45,132030,5933,3504,362,8912,2090,1197,545,Tag0,unknown
1545004083460,0,-184,-4.04296875E-5,48,41,45,132030,5933,3504,362,8912,2090,1197,545,Tag0,unknown
1545004083461,0,-167,-3.6694335937500004E-5,48,41,45,132030,5933,3504,362,8912,2090,1197,545,Tag0,unknown
1545004083461,0,-163,-3.5815429687500006E-5,48,41,45,132030,5933,3504,362,8912,2090,1197,545,Tag0,unknown
1545004083461,0,-165,-3.62548828125E-5,48,41,45,132030,5933,3504,362,8912,2090,1197,545,Tag0,unknown
1545004083462,0,-168,-3.691406250000001E-5,48,41,45,132030,5933,3504,362,8912,2090,1197,545,Tag0,unknown
1545004083462,0,-165,-3.62548828125E-5,48,41,45,132030,5933,3504,362,8912,2090,1197,545,Tag0,unknown
1545004083462,0,-147,-3.22998046875E-5,48,41,45,132030,5933,3504,362,8912,2090,1197,545,Tag0,unknown
1545004083462,0,-132,-2.900390625E-5,48,41,45,132030,5933,3504,362,8912,2090,1197,545,Tag0,unknown
1545004083475,0,-133,-2.92236328125E-5,48,41,45,132030,5933,3504,362,8912,2090,1197,545,Tag0,unknown
1545004083475,0,-129,-2.8344726562500002E-5,48,41,45,132030,5933,3504,362,8912,2090,1197,545,Tag0,unknown
1545004083475,0,-129,-2.8344726562500002E-5,48,41,45,132030,5933,3504,362,8912,2090,1197,545,Tag0,unknown
1545004083476,0,-131,-2.87841796875E-5,48,41,45,132030,5933,3504,362,8912,2090,1197,545,Tag0,unknown
1545004083476,0,-129,-2.8344726562500002E-5,48,41,45,132030,5933,3504,362,8912,2090,1197,545,Tag0,unknown
1545004083476,0,-370,-8.1298828125E-5,48,41,45,132030,5933,3504,362,8912,2090,1197,545,Tag0,unknown
1545004083477,0,-353,-7.75634765625E-5,48,41,45,132030,5933,3504,362,8912,2090,1197,545,Tag0,unknown
1545004083494,0,-342,-7.5146484375E-5,48,41,45,132030,5933,3504,362,8912,2090,1197,545,Tag0,unknown
1545004083494,0,-344,-7.558593750000001E-5,48,41,45,132030,5933,3504,362,8912,2090,1197,545,Tag0,unknown
1545004083496,0,-363,-7.97607421875E-5,48,41,45,132030,5933,3504,362,8912,2090,1197,545,Tag0,unknown
1545004083496,0,-373,-8.19580078125E-5,48,41,45,132030,5933,3504,362,8912,2090,1197,545,Tag0,unknown
1545004083496,0,-357,-7.844238281250001E-5,48,41,45,132030,5933,3504,362,8912,2090,1197,545,Tag0,unknown
1545004083497,0,-345,-7.58056640625E-5,48,41,45,132030,5933,3504,362,8912,2090,1197,545,Tag0,unknown
1545004083497,0,-346,-7.6025390625E-5,48,41,45,132030,5933,3504,362,8912,2090,1197,545,Tag0,unknown
1545004083497,0,-341,-7.492675781250002E-5,48,41,45,132030,5933,3504,362,8912,2090,1197,545,Tag0,unknown
1545004083497,0,-331,-7.272949218750001E-5,48,41,45,132030,5933,3504,362,8912,2090,1197,545,Tag0,unknown
1545004083497,0,-326,-7.163085937500001E-5,48,41,45,132030,5933,3504,362,8912,2090,1197,545,Tag0,unknown
1545004083510,0,-317,-6.96533203125E-5,48,41,45,132030,5933,3504,362,8912,2090,1197,545,Tag0,unknown
1545004083511,0,-311,-6.833496093750001E-5,48,41,45,132030,5933,3504,362,8912,2090,1197,545,Tag0,unknown
1545004083511,0,-300,-6.591796875E-5,48,41,45,132030,5933,3504,362,8912,2090,1197,545,Tag0,unknown
1545004083511,0,-283,-6.218261718750001E-5,48,41,45,132030,5933,3504,362,8912,2090,1197,545,Tag0,unknown
1545004083512,0,-269,-5.9106445312499996E-5,48,41,45,132030,5933,3504,362,8912,2090,1197,545,Tag0,unknown
1545004083512,0,-275,-6.04248046875E-5,48,41,45,132030,5933,3504,362,8912,2090,1197,545,Tag0,unknown
1545004083513,0,-281,-6.17431640625E-5,48,41,45,132030,5933,3504,362,8912,2090,1197,545,Tag0,unknown
1545004083513,0,-275,-6.04248046875E-5,48,41,45,132030,5933,3504,362,8912,2090,1197,545,Tag0,unknown
1545004083526,0,-263,-5.7788085937500005E-5,48,41,45,132030,5933,3504,362,8912,2090,1197,545,Tag0,unknown
1545004083527,0,-258,-5.6689453125000004E-5,48,41,45,132030,5933,3504,362,8912,2090,1197,545,Tag0,unknown
1545004083527,0,2,4.39453125E-7,48,41,45,132030,5933,3504,362,8912,2090,1197,545,Tag0,unknown
1545004083527,0,10,2.197265625E-6,48,41,45,132030,5933,3504,362,8912,2090,1197,545,Tag0,unknown
1545004083528,0,23,5.0537109375E-6,48,41,45,132030,5933,3504,362,8912,2090,1197,545,Tag0,unknown
1545004083528,0,24,5.2734375E-6,48,41,45,132030,5933,3504,362,8912,2090,1197,545,Tag0,unknown
1545004083528,0,19,4.1748046875E-6,48,41,45,132030,5933,3504,362,8912,2090,1197,545,Tag0,unknown
1545004083528,0,20,4.39453125E-6,48,41,45,132030,5933,3504,362,8912,2090,1197,545,Tag0,unknown
1545004083544,0,28,6.15234375E-6,48,41,45,132030,5933,3504,362,8912,2090,1197,545,Tag0,unknown
1545004083544,0,44,9.66796875E-6,48,41,45,132030,5933,3504,362,8912,2090,1197,545,Tag0,unknown
1545004083545,0,59,1.29638671875E-5,48,41,45,132030,5933,3504,362,8912,2090,1197,545,Tag0,unknown
1545004083545,0,64,1.40625E-5,48,41,45,132030,5933,3504,362,8912,2090,1197,545,Tag0,unknown
1545004083545,0,60,1.318359375E-5,48,41,45,132030,5933,3504,362,8912,2090,1197,545,Tag0,unknown
1545004083546,0,65,1.42822265625E-5,48,41,45,132030,5933,3504,362,8912,2090,1197,545,Tag0,unknown
1545004083546,0,64,1.40625E-5,48,41,45,132030,5933,3504,362,8912,2090,1197,545,Tag0,unknown
1545004083546,0,66,1.4501953125E-5,48,41,45,132030,5933,3504,362,8912,2090,1197,545,Tag0,unknown
1545004083546,0,64,1.40625E-5,48,41,45,132030,5933,3504,362,8912,2090,1197,545,Tag0,unknown
1545004083561,0,65,1.42822265625E-5,48,41,45,132030,5933,3504,362,8912,2090,1197,545,Tag0,unknown
1545004083562,0,67,1.4721679687500002E-5,48,41,45,132030,5933,3504,362,8912,2090,1197,545,Tag0,unknown
1545004083562,0,75,1.64794921875E-5,48,41,45,132030,5933,3504,362,8912,2090,1197,545,Tag0,unknown
1545004083562,0,83,1.82373046875E-5,48,41,45,132030,5933,3504,362,8912,2090,1197,545,Tag0,unknown
1545004083563,0,84,1.8457031250000004E-5,48,41,45,132030,5933,3504,362,8912,2090,1197,545,Tag0,unknown
1545004083563,0,74,1.6259765625E-5,48,41,45,132030,5933,3504,362,8912,2090,1197,545,Tag0,unknown
1545004083576,0,76,1.669921875E-5,48,41,45,132030,5933,3504,362,8912,2090,1197,545,Tag0,unknown
1545004083577,0,91,1.99951171875E-5,48,41,45,132030,5933,3504,362,8912,2090,1197,545,Tag0,unknown
1545004083577,0,101,2.2192382812500002E-5,48,41,45,132030,5933,3504,362,8912,2090,1197,545,Tag0,unknown
1545004083577,0,103,2.26318359375E-5,48,41,45,132030,5933,3504,362,8912,2090,1197,545,Tag0,unknown
1545004083578,0,103,2.26318359375E-5,48,41,45,132030,5933,3504,362,8912,2090,1197,545,Tag0,unknown
1545004083578,0,112,2.4609375E-5,48,41,45,132030,5933,3504,362,8912,2090,1197,545,Tag0,unknown
1545004083578,0,119,2.6147460937500004E-5,48,41,45,132030,5933,3504,362,8912,2090,1197,545,Tag0,unknown
1545004083579,0,120,2.63671875E-5,48,41,45,132030,5933,3504,362,8912,2090,1197,545,Tag0,unknown
1545004083579,0,117,2.5708007812499998E-5,48,41,45,132030,5933,3504,362,8912,2090,1197,545,Tag0,unknown
1545004083579,0,105,2.30712890625E-5,48,41,45,132030,5933,3504,362,8912,2090,1197,545,Tag0,unknown
1545004083579,0,87,1.91162109375E-5,48,41,45,132030,5933,3504,362,8912,2090,1197,545,Tag0,unknown
1545004083594,0,76,1.669921875E-5,48,41,45,132030,5933,3504,362,8912,2090,1197,545,Tag0,unknown
1545004083595,0,97,2.13134765625E-5,48,41,45,132030,5933,3504,362,8912,2090,1197,545,Tag0,unknown
1545004083595,0,119,2.6147460937500004E-5,48,41,45,132030,5933,3504,362,8912,2090,1197,545,Tag0,unknown
1545004083595,0,-128,-2.8125E-5,48,41,45,132030,5933,3504,362,8912,2090,1197,545,Tag0,unknown
1545004083595,0,-128,-2.8125E-5,48,41,45,132030,5933,3504,362,8912,2090,1197,545,Tag0,unknown
1545004083596,0,-125,-2.74658203125E-5,48,41,45,132030,5933,3504,362,8912,2090,1197,545,Tag0,unknown
1545004083596,0,-119,-2.6147460937500004E-5,48,41,45,132030,5933,3504,362,8912,2090,1197,545,Tag0,unknown
1545004083597,0,-102,-2.2412109374999998E-5,48,41,45,132030,5933,3504,362,8912,2090,1197,545,Tag0,unknown
1545004083597,0,-90,-1.9775390625E-5,48,41,45,132030,5933,3504,362,8912,2090,1197,545,Tag0,unknown
1545004083612,0,-91,-1.99951171875E-5,48,41,45,132030,5933,3504,362,8912,2090,1197,545,Tag0,unknown
1545004083613,0,-95,-2.08740234375E-5,48,41,45,132030,5933,3504,362,8912,2090,1197,545,Tag0,unknown
1545004083613,0,-100,-2.197265625E-5,48,41,45,132030,5933,3504,362,8912,2090,1197,545,Tag0,unknown
1545004083614,0,-106,-2.3291015625000003E-5,48,41,45,132030,5933,3504,362,8912,2090,1197,545,Tag0,unknown
1545004083614,0,-109,-2.39501953125E-5,48,41,45,132030,5933,3504,362,8912,2090,1197,545,Tag0,unknown
1545004083614,0,-100,-2.197265625E-5,48,41,45,132030,5933,3504,362,8912,2090,1197,545,Tag0,unknown
1545004083614,0,-91,-1.99951171875E-5,48,41,45,132030,5933,3504,362,8912,2090,1197,545,Tag0,unknown
1545004083614,0,-89,-1.95556640625E-5,48,41,45,132030,5933,3504,362,8912,2090,1197,545,Tag0,unknown
1545004083615,0,-84,-1.8457031250000004E-5,48,41,45,132030,5933,3504,362,8912,2090,1197,545,Tag0,unknown
1545004083615,0,-86,-1.8896484375000003E-5,48,41,45,132030,5933,3504,362,8912,2090,1197,545,Tag0,unknown
1545004083627,0,-104,-2.28515625E-5,48,41,45,132030,5933,3504,362,8912,2090,1197,545,Tag0,unknown
1545004083628,0,-111,-2.43896484375E-5,48,41,45,132030,5933,3504,362,8912,2090,1197,545,Tag0,unknown
1545004083628,0,-103,-2.26318359375E-5,48,41,45,132030,5933,3504,362,8912,2090,1197,545,Tag0,unknown
1545004083629,0,-93,-2.04345703125E-5,48,41,45,132030,5933,3504,362,8912,2090,1197,545,Tag0,unknown
1545004083629,0,-90,-1.9775390625E-5,48,41,45,132030,5933,3504,362,8912,2090,1197,545,Tag0,unknown
1545004083629,0,-78,-1.7138671875E-5,48,41,45,132030,5933,3504,362,8912,2090,1197,545,Tag0,unknown
1545004083641,0,-73,-1.6040039062500002E-5,48,41,45,132030,5933,3504,362,8912,2090,1197,545,Tag0,unknown
1545004083642,0,-60,-1.318359375E-5,48,41,45,132030,5933,3504,362,8912,2090,1197,545,Tag0,unknown
1545004083642,0,-47,-1.0327148437500001E-5,48,41,45,132030,5933,3504,362,8912,2090,1197,545,Tag0,unknown
1545004083643,0,-52,-1.142578125E-5,48,41,45,132030,5933,3504,362,8912,2090,1197,545,Tag0,unknown
1545004083643,0,-85,-1.86767578125E-5,48,41,45,132030,5933,3504,362,8912,2090,1197,545,Tag0,unknown
1545004083643,0,-112,-2.4609375E-5,48,41,45,132030,5933,3504,362,8912,2090,1197,545,Tag0,unknown
1545004083643,0,-119,-2.6147460937500004E-5,48,41,45,132030,5933,3504,362,8912,2090,1197,545,Tag0,unknown
1545004083643,0,-112,-2.4609375E-5,48,41,45,132030,5933,3504,362,8912,2090,1197,545,Tag0,unknown
1545004083659,0,-120,-2.63671875E-5,48,41,45,132030,5933,3504,362,8912,2090,1197,545,Tag0,unknown
1545004083660,0,117,2.5708007812499998E-5,48,41,45,132030,5933,3504,362,8912,2090,1197,545,Tag0,unknown
1545004083660,0,108,2.3730468750000002E-5,48,41,45,132030,5933,3504,362,8912,2090,1197,545,Tag0,unknown
1545004083660,0,107,2.35107421875E-5,48,41,45,132030,5933,3504,362,8912,2090,1197,545,Tag0,unknown
1545004083660,0,109,2.39501953125E-5,48,41,45,132030,5933,3504,362,8912,2090,1197,545,Tag0,unknown
1545004083661,0,112,2.4609375E-5,48,41,45,132030,5933,3504,362,8912,2090,1197,545,Tag0,unknown
1545004083661,0,115,2.52685546875E-5,48,41,45,132030,5933,3504,362,8912,2090,1197,545,Tag0,unknown
1545004083661,0,117,2.5708007812499998E-5,48,41,45,132030,5933,3504,362,8912,2090,1197,545,Tag0,unknown
1545004083661,0,106,2.3291015625000003E-5,48,41,45,132030,5933,3504,362,8912,2090,1197,545,Tag0,unknown
1545004083676,0,91,1.99951171875E-5,48,41,45,132030,5933,3504,362,8912,2090,1197,545,Tag0,unknown
1545004083676,0,87,1.91162109375E-5,48,41,45,132030,5933,3504,362,8912,2090,1197,545,Tag0,unknown
1545004083676,0,100,2.197265625E-5,48,41,45,132030,5933,3504,362,8912,2090,1197,545,Tag0,unknown
1545004083677,0,114,2.5048828125000003E-5,48,41,45,132030,5933,3504,362,8912,2090,1197,545,Tag0,unknown
1545004083677,0,120,2.63671875E-5,48,41,45,132030,5933,3504,362,8912,2090,1197,545,Tag0,unknown
1545004083677,0,114,2.5048828125000003E-5,48,41,45,132030,5933,3504,362,8912,2090,1197,545,Tag0,unknown
1545004083677,0,115,2.52685546875E-5,48,41,45,132030,5933,3504,362,8912,2090,1197,545,Tag0,unknown
1545004083677,0,-124,-2.724609375E-5,48,41,45,132030,5933,3504,362,8912,2090,1197,545,Tag0,unknown
1545004083678,0,-108,-2.3730468750000002E-5,48,41,45,132030,5933,3504,362,8912,2090,1197,545,Tag0,unknown
1545004083692,0,-94,-2.0654296875000002E-5,48,41,45,132030,5933,3504,362,8912,2090,1197,545,Tag0,unknown
1545004083692,0,-91,-1.99951171875E-5,48,41,45,132030,5933,3504,362,8912,2090,1197,545,Tag0,unknown
1545004083693,0,-103,-2.26318359375E-5,48,41,45,132030,5933,3504,362,8912,2090,1197,545,Tag0,unknown
1545004083693,0,-123,-2.70263671875E-5,48,41,45,132030,5933,3504,362,8912,2090,1197,545,Tag0,unknown
1545004083693,0,-126,-2.7685546875E-5,48,41,45,132030,5933,3504,362,8912,2090,1197,545,Tag0,unknown
1545004083694,0,-122,-2.6806640625E-5,48,41,45,132030,5933,3504,362,8912,2090,1197,545,Tag0,unknown
1545004083694,0,-111,-2.43896484375E-5,48,41,45,132030,5933,3504,362,8912,2090,1197,545,Tag0,unknown
1545004083694,0,-95,-2.08740234375E-5,48,41,45,132030,5933,3504,362,8912,2090,1197,545,Tag0,unknown
1545004083694,0,-88,-1.93359375E-5,48,41,45,132030,5933,3504,362,8912,2090,1197,545,Tag0,unknown
1545004083715,0,-103,-2.26318359375E-5,48,41,45,132030,5933,3504,362,8912,2090,1197,545,Tag0,unknown
1545004083716,0,-122,-2.6806640625E-5,48,41,45,132030,5933,3504,362,8912,2090,1197,545,Tag0,unknown
1545004083717,0,-117,-2.5708007812499998E-5,48,41,45,132030,5933,3504,362,8912,2090,1197,545,Tag0,unknown
1545004083717,0,-104,-2.28515625E-5,48,41,45,132030,5933,3504,362,8912,2090,1197,545,Tag0,unknown
1545004083718,0,-103,-2.26318359375E-5,48,41,45,132030,5933,3504,362,8912,2090,1197,545,Tag0,unknown
1545004083718,0,-99,-2.1752929687500003E-5,48,41,45,132030,5933,3504,362,8912,2090,1197,545,Tag0,unknown
1545004083719,0,-90,-1.9775390625E-5,48,41,45,132030,5933,3504,362,8912,2090,1197,545,Tag0,unknown
1545004083719,0,-96,-2.109375E-5,48,41,45,132030,5933,3504,362,8912,2090,1197,545,Tag0,unknown
1545004083719,0,-108,-2.3730468750000002E-5,48,41,45,132030,5933,3504,362,8912,2090,1197,545,Tag0,unknown
1545004083720,0,-117,-2.5708007812499998E-5,48,41,45,132030,5933,3504,362,8912,2090,1197,545,Tag0,unknown
1545004083720,0,-117,-2.5708007812499998E-5,48,41,45,132030,5933,3504,362,8912,2090,1197,545,Tag0,unknown
1545004083726,0,-108,-2.3730468750000002E-5,48,41,45,132030,5933,3504,362,8912,2090,1197,545,Tag0,unknown
1545004083726,0,-107,-2.35107421875E-5,48,41,45,132030,5933,3504,362,8912,2090,1197,545,Tag0,unknown
1545004083726,0,-112,-2.4609375E-5,48,41,45,132030,5933,3504,362,8912,2090,1197,545,Tag0,unknown
1545004083727,0,-111,-2.43896484375E-5,48,41,45,132030,5933,3504,362,8912,2090,1197,545,Tag0,unknown
1545004083727,0,-105,-2.30712890625E-5,48,41,45,132030,5933,3504,362,8912,2090,1197,545,Tag0,unknown
1545004083727,0,-103,-2.26318359375E-5,48,41,45,132030,5933,3504,362,8912,2090,1197,545,Tag0,unknown
1545004083746,0,-109,-2.39501953125E-5,48,41,45,132030,5933,3504,362,8912,2090,1197,545,Tag0,unknown
1545004083747,0,-122,-2.6806640625E-5,48,41,45,132030,5933,3504,362,8912,2090,1197,545,Tag0,unknown
1545004083747,0,121,2.6586914062500003E-5,48,41,45,132030,5933,3504,362,8912,2090,1197,545,Tag0,unknown
1545004083747,0,113,2.48291015625E-5,48,41,45,132030,5933,3504,362,8912,2090,1197,545,Tag0,unknown
1545004083747,0,121,2.6586914062500003E-5,48,41,45,132030,5933,3504,362,8912,2090,1197,545,Tag0,unknown
1545004083747,0,-112,-2.4609375E-5,48,41,45,132030,5933,3504,362,8912,2090,1197,545,Tag0,unknown
1545004083747,0,-108,-2.3730468750000002E-5,48,41,45,132030,5933,3504,362,8912,2090,1197,545,Tag0,unknown
1545004083748,0,-124,-2.724609375E-5,48,41,45,132030,5933,3504,362,8912,2090,1197,545,Tag0,unknown
1545004083748,0,112,2.4609375E-5,48,41,45,132030,5933,3504,362,8912,2090,1197,545,Tag0,unknown
1545004083759,0,101,2.2192382812500002E-5,48,41,45,132030,5933,3504,362,8912,2090,1197,545,Tag0,unknown
1545004083760,0,99,2.1752929687500003E-5,48,41,45,132030,5933,3504,362,8912,2090,1197,545,Tag0,unknown
1545004083760,0,103,2.26318359375E-5,48,41,45,132030,5933,3504,362,8912,2090,1197,545,Tag0,unknown
1545004083760,0,116,2.548828125E-5,48,41,45,132030,5933,3504,362,8912,2090,1197,545,Tag0,unknown
1545004083761,0,124,2.724609375E-5,48,41,45,132030,5933,3504,362,8912,2090,1197,545,Tag0,unknown
1545004083761,0,-123,-2.70263671875E-5,48,41,45,132030,5933,3504,362,8912,2090,1197,545,Tag0,unknown
1545004083762,0,-120,-2.63671875E-5,48,41,45,132030,5933,3504,362,8912,2090,1197,545,Tag0,unknown
1545004083777,0,-123,-2.70263671875E-5,48,41,45,132030,5933,3504,362,8912,2090,1197,545,Tag0,unknown
1545004083778,0,-127,-2.79052734375E-5,48,41,45,132030,5933,3504,362,8912,2090,1197,545,Tag0,unknown
1545004083778,0,116,2.548828125E-5,48,41,45,132030,5933,3504,362,8912,2090,1197,545,Tag0,unknown
1545004083778,0,105,2.30712890625E-5,48,41,45,132030,5933,3504,362,8912,2090,1197,545,Tag0,unknown
1545004083779,0,115,2.52685546875E-5,48,41,45,132030,5933,3504,362,8912,2090,1197,545,Tag0,unknown
1545004083779,0,-121,-2.6586914062500003E-5,48,41,45,132030,5933,3504,362,8912,2090,1197,545,Tag0,unknown
1545004083779,0,-107,-2.35107421875E-5,48,41,45,132030,5933,3504,362,8912,2090,1197,545,Tag0,unknown
1545004083779,0,-110,-2.4169921875E-5,48,41,45,132030,5933,3504,362,8912,2090,1197,545,Tag0,unknown
1545004083779,0,-118,-2.5927734375E-5,48,41,45,132030,5933,3504,362,8912,2090,1197,545,Tag0,unknown
1545004083779,0,-126,-2.7685546875E-5,48,41,45,132030,5933,3504,362,8912,2090,1197,545,Tag0,unknown
1545004083791,0,117,2.5708007812499998E-5,48,41,45,132030,5933,3504,362,8912,2090,1197,545,Tag0,unknown
1545004083792,0,109,2.39501953125E-5,48,41,45,132030,5933,3504,362,8912,2090,1197,545,Tag0,unknown
1545004083792,0,113,2.48291015625E-5,48,41,45,132030,5933,3504,362,8912,2090,1197,545,Tag0,unknown
1545004083848,0,115,2.52685546875E-5,48,41,45,132030,5933,3504,362,8912,2090,1197,545,Tag0,unknown
1545004083860,0,113,2.48291015625E-5,48,41,45,132030,5933,3504,362,8912,2090,1197,545,Tag0,unknown
1545004083918,0,114,2.5048828125000003E-5,48,41,45,132030,5933,3504,362,8912,2090,1197,545,Tag0,unknown
1545004083919,0,116,2.548828125E-5,48,41,45,132030,5933,3504,362,8912,2090,1197,545,Tag0,unknown
1545004083956,0,103,2.26318359375E-5,48,41,45,132030,5933,3504,362,8912,2090,1197,545,Tag0,unknown
1545004083977,0,81,1.77978515625E-5,48,41,45,132030,5933,3504,362,8912,2090,1197,545,Tag0,unknown
1545004083978,0,64,1.40625E-5,48,41,45,132030,5933,3504,362,8912,2090,1197,545,Tag0,unknown
1545004083979,0,70,1.5380859375E-5,48,41,45,132030,5933,3504,362,8912,2090,1197,545,Tag0,unknown
1545004083980,0,74,1.6259765625E-5,48,41,45,132030,5933,3504,362,8912,2090,1197,545,Tag0,unknown
1545004083983,0,59,1.29638671875E-5,48,41,45,132030,5933,3504,362,8912,2090,1197,545,Tag0,unknown
1545004083984,0,37,8.1298828125E-6,48,41,45,132030,5933,3504,362,8912,2090,1197,545,Tag0,unknown
1545004083985,0,22,4.833984375E-6,48,41,45,132030,5933,3504,362,8912,2090,1197,545,Tag0,unknown
1545004083985,0,23,5.0537109375E-6,48,41,45,132030,5933,3504,362,8912,2090,1197,545,Tag0,unknown
1545004083986,0,36,7.91015625E-6,48,41,45,132030,5933,3504,362,8912,2090,1197,545,Tag0,unknown
1545004083986,0,48,1.0546875E-5,48,41,45,132030,5933,3504,362,8912,2090,1197,545,Tag0,unknown
1545004083987,0,35,7.6904296875E-6,48,41,45,132030,5933,3504,362,8912,2090,1197,545,Tag0,unknown
1545004083987,0,7,1.5380859375E-6,48,41,45,132030,5933,3504,362,8912,2090,1197,545,Tag0,unknown
1545004083987,0,-269,-5.9106445312499996E-5,48,41,45,132030,5933,3504,362,8912,2090,1197,545,Tag0,unknown
1545004083989,0,-278,-6.108398437500001E-5,48,41,45,132030,5933,3504,362,8912,2090,1197,545,Tag0,unknown
1545004083991,0,-267,-5.86669921875E-5,48,41,45,132030,5933,3504,362,8912,2090,1197,545,Tag0,unknown
1545004083992,0,-258,-5.6689453125000004E-5,48,41,45,132030,5933,3504,362,8912,2090,1197,545,Tag0,unknown
1545004083993,0,3,6.591796875E-7,48,41,45,132030,5933,3504,362,8912,2090,1197,545,Tag0,unknown
1545004083993,0,-264,-5.80078125E-5,48,41,45,132030,5933,3504,362,8912,2090,1197,545,Tag0,unknown
1545004083994,0,-289,-6.35009765625E-5,48,41,45,132030,5933,3504,362,8912,2090,1197,545,Tag0,unknown
1545004083995,0,-298,-6.5478515625E-5,48,41,45,132030,5933,3504,362,8912,2090,1197,545,Tag0,unknown
1545004083995,0,-300,-6.591796875E-5,48,41,45,132030,5933,3504,362,8912,2090,1197,545,Tag0,unknown
1545004083996,0,-297,-6.525878906250001E-5,48,41,45,132030,5933,3504,362,8912,2090,1197,545,Tag0,unknown
1545004083997,0,-295,-6.48193359375E-5,48,41,45,132030,5933,3504,362,8912,2090,1197,545,Tag0,unknown
1545004083997,0,-299,-6.56982421875E-5,48,41,45,132030,5933,3504,362,8912,2090,1197,545,Tag0,unknown
1545004083997,0,-305,-6.70166015625E-5,48,41,45,132030,5933,3504,362,8912,2090,1197,545,Tag0,unknown
1545004083998,0,-309,-6.78955078125E-5,48,41,45,132030,5933,3504,362,8912,2090,1197,545,Tag0,unknown
1545004083999,0,-311,-6.833496093750001E-5,48,41,45,132030,5933,3504,362,8912,2090,1197,545,Tag0,unknown
1545004083999,0,-307,-6.74560546875E-5,48,41,45,132030,5933,3504,362,8912,2090,1197,545,Tag0,unknown
1545004084000,0,-295,-6.48193359375E-5,48,41,45,132030,5933,3504,362,8912,2090,1197,545,Tag0,unknown
1545004084000,0,-279,-6.13037109375E-5,48,41,45,132030,5933,3504,362,8912,2090,1197,545,Tag0,unknown
1545004084000,0,-274,-6.0205078124999997E-5,48,41,45,132030,5933,3504,362,8912,2090,1197,545,Tag0,unknown
1545004084000,0,-274,-6.0205078124999997E-5,48,41,45,132030,5933,3504,362,8912,2090,1197,545,Tag0,unknown
1545004084001,0,-266,-5.8447265625E-5,48,41,45,132030,5933,3504,362,8912,2090,1197,545,Tag0,unknown
1545004084001,0,1,2.197265625E-7,48,41,45,132030,5933,3504,362,8912,2090,1197,545,Tag0,unknown
1545004084001,0,3,6.591796875E-7,48,41,45,132030,5933,3504,362,8912,2090,1197,545,Tag0,unknown
1545004084002,0,-258,-5.6689453125000004E-5,48,41,45,132030,5933,3504,362,8912,2090,1197,545,Tag0,unknown
1545004084002,0,-264,-5.80078125E-5,48,41,45,132030,5933,3504,362,8912,2090,1197,545,Tag0,unknown
1545004084003,0,-275,-6.04248046875E-5,48,41,45,132030,5933,3504,362,8912,2090,1197,545,Tag0,unknown
1545004084003,0,-290,-6.3720703125E-5,48,41,45,132030,5933,3504,362,8912,2090,1197,545,Tag0,unknown
1545004084003,0,-300,-6.591796875E-5,48,41,45,132030,5933,3504,362,8912,2090,1197,545,Tag0,unknown
1545004084004,0,-309,-6.78955078125E-5,48,41,45,132030,5933,3504,362,8912,2090,1197,545,Tag0,unknown
1545004084004,0,-313,-6.87744140625E-5,48,41,45,132030,5933,3504,362,8912,2090,1197,545,Tag0,unknown
1545004084004,0,-317,-6.96533203125E-5,48,41,45,132030,5933,3504,362,8912,2090,1197,545,Tag0,unknown
1545004084004,0,-314,-6.8994140625E-5,48,41,45,132030,5933,3504,362,8912,2090,1197,545,Tag0,unknown
1545004084005,0,-312,-6.85546875E-5,48,41,45,132030,5933,3504,362,8912,2090,1197,545,Tag0,unknown
1545004084005,0,-317,-6.96533203125E-5,48,41,45,132030,5933,3504,362,8912,2090,1197,545,Tag0,unknown
1545004084006,0,-315,-6.92138671875E-5,48,41,45,132030,5933,3504,362,8912,2090,1197,545,Tag0,unknown
1545004084007,0,-309,-6.78955078125E-5,48,41,45,132030,5933,3504,362,8912,2090,1197,545,Tag0,unknown
1545004084007,0,-305,-6.70166015625E-5,48,41,45,132030,5933,3504,362,8912,2090,1197,545,Tag0,unknown
1545004084007,0,-293,-6.43798828125E-5,48,41,45,132030,5933,3504,362,8912,2090,1197,545,Tag0,unknown
1545004084008,0,-280,-6.15234375E-5,48,41,45,132030,5933,3504,362,8912,2090,1197,545,Tag0,unknown
1545004084008,0,-273,-5.998535156250001E-5,48,41,45,132030,5933,3504,362,8912,2090,1197,545,Tag0,unknown
1545004084008,0,-267,-5.86669921875E-5,48,41,45,132030,5933,3504,362,8912,2090,1197,545,Tag0,unknown
1545004084008,0,-264,-5.80078125E-5,48,41,45,132030,5933,3504,362,8912,2090,1197,545,Tag0,unknown
1545004084009,0,-270,-5.9326171875E-5,48,41,45,132030,5933,3504,362,8912,2090,1197,545,Tag0,unknown
1545004084009,0,-284,-6.240234375E-5,48,41,45,132030,5933,3504,362,8912,2090,1197,545,Tag0,unknown
1545004084010,0,-298,-6.5478515625E-5,48,41,45,132030,5933,3504,362,8912,2090,1197,545,Tag0,unknown
1545004084010,0,-305,-6.70166015625E-5,48,41,45,132030,5933,3504,362,8912,2090,1197,545,Tag0,unknown
1545004084010,0,-298,-6.5478515625E-5,48,41,45,132030,5933,3504,362,8912,2090,1197,545,Tag0,unknown
1545004084011,0,-289,-6.35009765625E-5,48,41,45,132030,5933,3504,362,8912,2090,1197,545,Tag0,unknown
1545004084012,0,-290,-6.3720703125E-5,48,41,45,132030,5933,3504,362,8912,2090,1197,545,Tag0,unknown
1545004084012,0,-291,-6.39404296875E-5,48,41,45,132030,5933,3504,362,8912,2090,1197,545,Tag0,unknown
1545004084012,0,-277,-6.0864257812500005E-5,48,41,45,132030,5933,3504,362,8912,2090,1197,545,Tag0,unknown
1545004084013,0,-257,-5.64697265625E-5,48,41,45,132030,5933,3504,362,8912,2090,1197,545,Tag0,unknown
1545004084013,0,4,8.7890625E-7,48,41,45,132030,5933,3504,362,8912,2090,1197,545,Tag0,unknown
1545004084013,0,-267,-5.86669921875E-5,48,41,45,132030,5933,3504,362,8912,2090,1197,545,Tag0,unknown
1545004084014,0,-282,-6.1962890625E-5,48,41,45,132030,5933,3504,362,8912,2090,1197,545,Tag0,unknown
1545004084014,0,-265,-5.82275390625E-5,48,41,45,132030,5933,3504,362,8912,2090,1197,545,Tag0,unknown
1545004084014,0,10,2.197265625E-6,48,41,45,132030,5933,3504,362,8912,2090,1197,545,Tag0,unknown
1545004084015,0,9,1.9775390625E-6,48,41,45,132030,5933,3504,362,8912,2090,1197,545,Tag0,unknown
1545004084015,0,-260,-5.712890625E-5,48,41,45,132030,5933,3504,362,8912,2090,1197,545,Tag0,unknown
1545004084015,0,-276,-6.064453125E-5,48,41,45,132030,5933,3504,362,8912,2090,1197,545,Tag0,unknown
1545004084016,0,-282,-6.1962890625E-5,48,41,45,132030,5933,3504,362,8912,2090,1197,545,Tag0,unknown
1545004084016,0,-284,-6.240234375E-5,48,41,45,132030,5933,3504,362,8912,2090,1197,545,Tag0,unknown
1545004084016,0,-282,-6.1962890625E-5,48,41,45,132030,5933,3504,362,8912,2090,1197,545,Tag0,unknown
1545004084017,0,-283,-6.218261718750001E-5,48,41,45,132030,5933,3504,362,8912,2090,1197,545,Tag0,unknown
1545004084017,0,-281,-6.17431640625E-5,48,41,45,132030,5933,3504,362,8912,2090,1197,545,Tag0,unknown
1545004084017,0,-276,-6.064453125E-5,48,41,45,132030,5933,3504,362,8912,2090,1197,545,Tag0,unknown
1545004084018,0,-269,-5.9106445312499996E-5,48,41,45,132030,5933,3504,362,8912,2090,1197,545,Tag0,unknown
1545004084018,0,-265,-5.82275390625E-5,48,41,45,132030,5933,3504,362,8912,2090,1197,545,Tag0,unknown
1545004084018,0,-276,-6.064453125E-5,48,41,45,132030,5933,3504,362,8912,2090,1197,545,Tag0,unknown
1545004084019,0,-284,-6.240234375E-5,48,41,45,132030,5933,3504,362,8912,2090,1197,545,Tag0,unknown
1545004084019,0,-275,-6.04248046875E-5,48,41,45,132030,5933,3504,362,8912,2090,1197,545,Tag0,unknown
1545004084019,0,1,2.197265625E-7,48,41,45,132030,5933,3504,362,8912,2090,1197,545,Tag0,unknown
1545004084019,0,22,4.833984375E-6,48,41,45,132030,5933,3504,362,8912,2090,1197,545,Tag0,unknown
1545004084020,0,25,5.4931640625E-6,48,41,45,132030,5933,3504,362,8912,2090,1197,545,Tag0,unknown
1545004084020,0,10,2.197265625E-6,48,41,45,132030,5933,3504,362,8912,2090,1197,545,Tag0,unknown
1545004084020,0,1,2.197265625E-7,48,41,45,132030,5933,3504,362,8912,2090,1197,545,Tag0,unknown
1545004084021,0,5,1.0986328125E-6,48,41,45,132030,5933,3504,362,8912,2090,1197,545,Tag0,unknown
1545004084021,0,25,5.4931640625E-6,48,41,45,132030,5933,3504,362,8912,2090,1197,545,Tag0,unknown
1545004084021,0,36,7.91015625E-6,48,41,45,132030,5933,3504,362,8912,2090,1197,545,Tag0,unknown
1545004084022,0,39,8.5693359375E-6,48,41,45,132030,5933,3504,362,8912,2090,1197,545,Tag0,unknown
1545004084023,0,41,9.008789062499999E-6,48,41,45,132030,5933,3504,362,8912,2090,1197,545,Tag0,unknown
1545004084023,0,48,1.0546875E-5,48,41,45,132030,5933,3504,362,8912,2090,1197,545,Tag0,unknown
1545004084027,0,64,1.40625E-5,48,41,45,132030,5933,3504,362,8912,2090,1197,545,Tag0,unknown
1545004084028,0,84,1.8457031250000004E-5,48,41,45,132030,5933,3504,362,8912,2090,1197,545,Tag0,unknown
1545004084028,0,102,2.2412109374999998E-5,48,41,45,132030,5933,3504,362,8912,2090,1197,545,Tag0,unknown
1545004084028,0,99,2.1752929687500003E-5,48,41,45,132030,5933,3504,362,8912,2090,1197,545,Tag0,unknown
1545004084028,0,75,1.64794921875E-5,48,41,45,132030,5933,3504,362,8912,2090,1197,545,Tag0,unknown
1545004084029,0,65,1.42822265625E-5,48,41,45,132030,5933,3504,362,8912,2090,1197,545,Tag0,unknown
1545004084029,0,67,1.4721679687500002E-5,48,41,45,132030,5933,3504,362,8912,2090,1197,545,Tag0,unknown
1545004084029,0,77,1.69189453125E-5,48,41,45,132030,5933,3504,362,8912,2090,1197,545,Tag0,unknown
1545004084030,0,99,2.1752929687500003E-5,48,41,45,132030,5933,3504,362,8912,2090,1197,545,Tag0,unknown
1545004084030,0,117,2.5708007812499998E-5,48,41,45,132030,5933,3504,362,8912,2090,1197,545,Tag0,unknown
1545004084031,0,119,2.6147460937500004E-5,48,41,45,132030,5933,3504,362,8912,2090,1197,545,Tag0,unknown
1545004084031,0,118,2.5927734375E-5,48,41,45,132030,5933,3504,362,8912,2090,1197,545,Tag0,unknown
1545004084031,0,114,2.5048828125000003E-5,48,41,45,132030,5933,3504,362,8912,2090,1197,545,Tag0,unknown
1545004084031,0,106,2.3291015625000003E-5,48,41,45,132030,5933,3504,362,8912,2090,1197,545,Tag0,unknown
1545004084031,0,108,2.3730468750000002E-5,48,41,45,132030,5933,3504,362,8912,2090,1197,545,Tag0,unknown
1545004084032,0,106,2.3291015625000003E-5,48,41,45,132030,5933,3504,362,8912,2090,1197,545,Tag0,unknown
1545004084032,0,99,2.1752929687500003E-5,48,41,45,132030,5933,3504,362,8912,2090,1197,545,Tag0,unknown
1545004084032,0,98,2.1533203125E-5,48,41,45,132030,5933,3504,362,8912,2090,1197,545,Tag0,unknown
1545004084032,0,103,2.26318359375E-5,48,41,45,132030,5933,3504,362,8912,2090,1197,545,Tag0,unknown
1545004084032,0,119,2.6147460937500004E-5,48,41,45,132030,5933,3504,362,8912,2090,1197,545,Tag0,unknown
1545004084033,0,-125,-2.74658203125E-5,48,41,45,132030,5933,3504,362,8912,2090,1197,545,Tag0,unknown
1545004084033,0,-127,-2.79052734375E-5,48,41,45,132030,5933,3504,362,8912,2090,1197,545,Tag0,unknown
1545004084033,0,124,2.724609375E-5,48,41,45,132030,5933,3504,362,8912,2090,1197,545,Tag0,unknown
1545004084033,0,-127,-2.79052734375E-5,48,41,45,132030,5933,3504,362,8912,2090,1197,545,Tag0,unknown
1545004084033,0,-122,-2.6806640625E-5,48,41,45,132030,5933,3504,362,8912,2090,1197,545,Tag0,unknown
1545004084034,0,-111,-2.43896484375E-5,48,41,45,132030,5933,3504,362,8912,2090,1197,545,Tag0,unknown
1545004084044,0,-108,-2.3730468750000002E-5,48,41,45,132030,5933,3504,362,8912,2090,1197,545,Tag0,unknown
1545004084044,0,-117,-2.5708007812499998E-5,48,41,45,132030,5933,3504,362,8912,2090,1197,545,Tag0,unknown
1545004084044,0,-128,-2.8125E-5,48,41,45,132030,5933,3504,362,8912,2090,1197,545,Tag0,unknown
1545004084045,0,123,2.70263671875E-5,48,41,45,132030,5933,3504,362,8912,2090,1197,545,Tag0,unknown
1545004084045,0,-122,-2.6806640625E-5,48,41,45,132030,5933,3504,362,8912,2090,1197,545,Tag0,unknown
1545004084060,0,-104,-2.28515625E-5,48,41,45,132030,5933,3504,362,8912,2090,1197,545,Tag0,unknown
1545004084061,0,-91,-1.99951171875E-5,48,41,45,132030,5933,3504,362,8912,2090,1197,545,Tag0,unknown
1545004084061,0,-94,-2.0654296875000002E-5,48,41,45,132030,5933,3504,362,8912,2090,1197,545,Tag0,unknown
1545004084061,0,-117,-2.5708007812499998E-5,48,41,45,132030,5933,3504,362,8912,2090,1197,545,Tag0,unknown
1545004084062,0,114,2.5048828125000003E-5,48,41,45,132030,5933,3504,362,8912,2090,1197,545,Tag0,unknown
1545004084062,0,99,2.1752929687500003E-5,48,41,45,132030,5933,3504,362,8912,2090,1197,545,Tag0,unknown
1545004084062,0,100,2.197265625E-5,48,41,45,132030,5933,3504,362,8912,2090,1197,545,Tag0,unknown
1545004084062,0,106,2.3291015625000003E-5,48,41,45,132030,5933,3504,362,8912,2090,1197,545,Tag0,unknown
1545004084062,0,103,2.26318359375E-5,48,41,45,132030,5933,3504,362,8912,2090,1197,545,Tag0,unknown
1545004084075,0,97,2.13134765625E-5,48,41,45,132030,5933,3504,362,8912,2090,1197,545,Tag0,unknown
1545004084076,0,98,2.1533203125E-5,48,41,45,132030,5933,3504,362,8912,2090,1197,545,Tag0,unknown
1545004084076,0,97,2.13134765625E-5,48,41,45,132030,5933,3504,362,8912,2090,1197,545,Tag0,unknown
1545004084076,0,92,2.021484375E-5,48,41,45,132030,5933,3504,362,8912,2090,1197,545,Tag0,unknown
1545004084076,0,89,1.95556640625E-5,48,41,45,132030,5933,3504,362,8912,2090,1197,545,Tag0,unknown
1545004084076,0,93,2.04345703125E-5,48,41,45,132030,5933,3504,362,8912,2090,1197,545,Tag0,unknown
1545004084077,0,105,2.30712890625E-5,48,41,45,132030,5933,3504,362,8912,2090,1197,545,Tag0,unknown
1545004084077,0,108,2.3730468750000002E-5,48,41,45,132030,5933,3504,362,8912,2090,1197,545,Tag0,unknown
1545004084098,0,105,2.30712890625E-5,48,41,45,132030,5933,3504,362,8912,2090,1197,545,Tag0,unknown
1545004084098,0,105,2.30712890625E-5,48,41,45,132030,5933,3504,362,8912,2090,1197,545,Tag0,unknown
1545004084098,0,113,2.48291015625E-5,48,41,45,132030,5933,3504,362,8912,2090,1197,545,Tag0,unknown
1545004084099,0,108,2.3730468750000002E-5,48,41,45,132030,5933,3504,362,8912,2090,1197,545,Tag0,unknown
1545004084099,0,98,2.1533203125E-5,48,41,45,132030,5933,3504,362,8912,2090,1197,545,Tag0,unknown
1545004084099,0,96,2.109375E-5,48,41,45,132030,5933,3504,362,8912,2090,1197,545,Tag0,unknown
1545004084099,0,103,2.26318359375E-5,48,41,45,132030,5933,3504,362,8912,2090,1197,545,Tag0,unknown
1545004084100,0,109,2.39501953125E-5,48,41,45,132030,5933,3504,362,8912,2090,1197,545,Tag0,unknown
1545004084100,0,117,2.5708007812499998E-5,48,41,45,132030,5933,3504,362,8912,2090,1197,545,Tag0,unknown
1545004084100,0,125,2.74658203125E-5,48,41,45,132030,5933,3504,362,8912,2090,1197,545,Tag0,unknown
1545004084100,0,122,2.6806640625E-5,48,41,45,132030,5933,3504,362,8912,2090,1197,545,Tag0,unknown
1545004084100,0,108,2.3730468750000002E-5,48,41,45,132030,5933,3504,362,8912,2090,1197,545,Tag0,unknown
1545004084101,0,101,2.2192382812500002E-5,48,41,45,132030,5933,3504,362,8912,2090,1197,545,Tag0,unknown
1545004084109,0,101,2.2192382812500002E-5,48,41,45,132030,5933,3504,362,8912,2090,1197,545,Tag0,unknown
1545004084110,0,100,2.197265625E-5,48,41,45,132030,5933,3504,362,8912,2090,1197,545,Tag0,unknown
1545004084110,0,101,2.2192382812500002E-5,48,41,45,132030,5933,3504,362,8912,2090,1197,545,Tag0,unknown
1545004084111,0,101,2.2192382812500002E-5,48,41,45,132030,5933,3504,362,8912,2090,1197,545,Tag0,unknown
1545004084111,0,98,2.1533203125E-5,48,41,45,132030,5933,3504,362,8912,2090,1197,545,Tag0,unknown
1545004084111,0,101,2.2192382812500002E-5,48,41,45,132030,5933,3504,362,8912,2090,1197,545,Tag0,unknown
1545004084112,0,100,2.197265625E-5,48,41,45,132030,5933,3504,362,8912,2090,1197,545,Tag0,unknown
1545004084129,0,87,1.91162109375E-5,48,41,45,132030,5933,3504,362,8912,2090,1197,545,Tag0,unknown
1545004084129,0,74,1.6259765625E-5,48,41,45,132030,5933,3504,362,8912,2090,1197,545,Tag0,unknown
1545004084130,0,69,1.51611328125E-5,48,41,45,132030,5933,3504,362,8912,2090,1197,545,Tag0,unknown
1545004084130,0,72,1.58203125E-5,48,41,45,132030,5933,3504,362,8912,2090,1197,545,Tag0,unknown
1545004084130,0,82,1.8017578124999998E-5,48,41,45,132030,5933,3504,362,8912,2090,1197,545,Tag0,unknown
1545004084131,0,84,1.8457031250000004E-5,48,41,45,132030,5933,3504,362,8912,2090,1197,545,Tag0,unknown
1545004084131,0,86,1.8896484375000003E-5,48,41,45,132030,5933,3504,362,8912,2090,1197,545,Tag0,unknown
1545004084131,0,91,1.99951171875E-5,48,41,45,132030,5933,3504,362,8912,2090,1197,545,Tag0,unknown
1545004084132,0,96,2.109375E-5,48,41,45,132030,5933,3504,362,8912,2090,1197,545,Tag0,unknown
1545004084132,0,92,2.021484375E-5,48,41,45,132030,5933,3504,362,8912,2090,1197,545,Tag0,unknown
1545004084143,0,97,2.13134765625E-5,48,41,45,132030,5933,3504,362,8912,2090,1197,545,Tag0,unknown
1545004084143,0,113,2.48291015625E-5,48,41,45,132030,5933,3504,362,8912,2090,1197,545,Tag0,unknown
1545004084144,0,124,2.724609375E-5,48,41,45,132030,5933,3504,362,8912,2090,1197,545,Tag0,unknown
1545004084144,0,124,2.724609375E-5,48,41,45,132030,5933,3504,362,8912,2090,1197,545,Tag0,unknown
1545004084145,0,114,2.5048828125000003E-5,48,41,45,132030,5933,3504,362,8912,2090,1197,545,Tag0,unknown
1545004084145,0,96,2.109375E-5,48,41,45,132030,5933,3504,362,8912,2090,1197,545,Tag0,unknown
1545004084145,0,88,1.93359375E-5,48,41,45,132030,5933,3504,362,8912,2090,1197,545,Tag0,unknown
1545004084160,0,96,2.109375E-5,48,41,45,132030,5933,3504,362,8912,2090,1197,545,Tag0,unknown
1545004084161,0,93,2.04345703125E-5,48,41,45,132030,5933,3504,362,8912,2090,1197,545,Tag0,unknown
1545004084161,0,88,1.93359375E-5,48,41,45,132030,5933,3504,362,8912,2090,1197,545,Tag0,unknown
1545004084161,0,85,1.86767578125E-5,48,41,45,132030,5933,3504,362,8912,2090,1197,545,Tag0,unknown
1545004084161,0,82,1.8017578124999998E-5,48,41,45,132030,5933,3504,362,8912,2090,1197,545,Tag0,unknown
1545004084161,0,84,1.8457031250000004E-5,48,41,45,132030,5933,3504,362,8912,2090,1197,545,Tag0,unknown
1545004084162,0,87,1.91162109375E-5,48,41,45,132030,5933,3504,362,8912,2090,1197,545,Tag0,unknown
1545004084162,0,89,1.95556640625E-5,48,41,45,132030,5933,3504,362,8912,2090,1197,545,Tag0,unknown
1545004084177,0,85,1.86767578125E-5,48,41,45,132030,5933,3504,362,8912,2090,1197,545,Tag0,unknown
1545004084178,0,76,1.669921875E-5,48,41,45,132030,5933,3504,362,8912,2090,1197,545,Tag0,unknown
1545004084178,0,80,1.7578125E-5,48,41,45,132030,5933,3504,362,8912,2090,1197,545,Tag0,unknown
1545004084178,0,90,1.9775390625E-5,48,41,45,132030,5933,3504,362,8912,2090,1197,545,Tag0,unknown
1545004084178,0,98,2.1533203125E-5,48,41,45,132030,5933,3504,362,8912,2090,1197,545,Tag0,unknown
1545004084179,0,96,2.109375E-5,48,41,45,132030,5933,3504,362,8912,2090,1197,545,Tag0,unknown
1545004084179,0,86,1.8896484375000003E-5,48,41,45,132030,5933,3504,362,8912,2090,1197,545,Tag0,unknown
1545004084179,0,82,1.8017578124999998E-5,48,41,45,132030,5933,3504,362,8912,2090,1197,545,Tag0,unknown
1545004084179,0,76,1.669921875E-5,48,41,45,132030,5933,3504,362,8912,2090,1197,545,Tag0,unknown
1545004084192,0,73,1.6040039062500002E-5,48,41,45,132030,5933,3504,362,8912,2090,1197,545,Tag0,unknown
1545004084192,0,74,1.6259765625E-5,48,41,45,132030,5933,3504,362,8912,2090,1197,545,Tag0,unknown
1545004084192,0,73,1.6040039062500002E-5,48,41,45,132030,5933,3504,362,8912,2090,1197,545,Tag0,unknown
1545004084193,0,66,1.4501953125E-5,48,41,45,132030,5933,3504,362,8912,2090,1197,545,Tag0,unknown
1545004084193,0,48,1.0546875E-5,48,41,45,132030,5933,3504,362,8912,2090,1197,545,Tag0,unknown
1545004084193,0,44,9.66796875E-6,48,41,45,132030,5933,3504,362,8912,2090,1197,545,Tag0,unknown
1545004084193,0,57,1.2524414062500001E-5,48,41,45,132030,5933,3504,362,8912,2090,1197,545,Tag0,unknown
1545004084193,0,67,1.4721679687500002E-5,48,41,45,132030,5933,3504,362,8912,2090,1197,545,Tag0,unknown
1545004084220,0,67,1.4721679687500002E-5,48,41,45,132030,5933,3504,362,8912,2090,1197,545,Tag0,unknown
1545004084220,0,64,1.40625E-5,48,41,45,132030,5933,3504,362,8912,2090,1197,545,Tag0,unknown
1545004084221,0,52,1.142578125E-5,48,41,45,132030,5933,3504,362,8912,2090,1197,545,Tag0,unknown
1545004084221,0,40,8.7890625E-6,48,41,45,132030,5933,3504,362,8912,2090,1197,545,Tag0,unknown
1545004084221,0,38,8.349609375E-6,48,41,45,132030,5933,3504,362,8912,2090,1197,545,Tag0,unknown
1545004084221,0,44,9.66796875E-6,48,41,45,132030,5933,3504,362,8912,2090,1197,545,Tag0,unknown
1545004084222,0,53,1.1645507812500002E-5,48,41,45,132030,5933,3504,362,8912,2090,1197,545,Tag0,unknown
1545004084222,0,55,1.20849609375E-5,48,41,45,132030,5933,3504,362,8912,2090,1197,545,Tag0,unknown
1545004084222,0,40,8.7890625E-6,48,41,45,132030,5933,3504,362,8912,2090,1197,545,Tag0,unknown
1545004084222,0,35,7.6904296875E-6,48,41,45,132030,5933,3504,362,8912,2090,1197,545,Tag0,unknown
1545004084222,0,40,8.7890625E-6,48,41,45,132030,5933,3504,362,8912,2090,1197,545,Tag0,unknown
1545004084223,0,48,1.0546875E-5,48,41,45,132030,5933,3504,362,8912,2090,1197,545,Tag0,unknown
1545004084223,0,54,1.1865234375000001E-5,48,41,45,132030,5933,3504,362,8912,2090,1197,545,Tag0,unknown
1545004084223,0,53,1.1645507812500002E-5,48,41,45,132030,5933,3504,362,8912,2090,1197,545,Tag0,unknown
1545004084227,0,40,8.7890625E-6,48,41,45,132030,5933,3504,362,8912,2090,1197,545,Tag0,unknown
1545004084227,0,34,7.4707031250000005E-6,48,41,45,132030,5933,3504,362,8912,2090,1197,545,Tag0,unknown
1545004084227,0,44,9.66796875E-6,48,41,45,132030,5933,3504,362,8912,2090,1197,545,Tag0,unknown
1545004084243,0,51,1.1206054687499999E-5,48,41,45,132030,5933,3504,362,8912,2090,1197,545,Tag0,unknown
1545004084244,0,40,8.7890625E-6,48,41,45,132030,5933,3504,362,8912,2090,1197,545,Tag0,unknown
1545004084244,0,35,7.6904296875E-6,48,41,45,132030,5933,3504,362,8912,2090,1197,545,Tag0,unknown
1545004084245,0,42,9.228515625000002E-6,48,41,45,132030,5933,3504,362,8912,2090,1197,545,Tag0,unknown
1545004084245,0,56,1.23046875E-5,48,41,45,132030,5933,3504,362,8912,2090,1197,545,Tag0,unknown
1545004084245,0,68,1.4941406250000001E-5,48,41,45,132030,5933,3504,362,8912,2090,1197,545,Tag0,unknown
1545004084245,0,72,1.58203125E-5,48,41,45,132030,5933,3504,362,8912,2090,1197,545,Tag0,unknown
1545004084245,0,75,1.64794921875E-5,48,41,45,132030,5933,3504,362,8912,2090,1197,545,Tag0,unknown
1545004084246,0,83,1.82373046875E-5,48,41,45,132030,5933,3504,362,8912,2090,1197,545,Tag0,unknown
1545004084247,0,75,1.64794921875E-5,48,41,45,132030,5933,3504,362,8912,2090,1197,545,Tag0,unknown
1545004084259,0,58,1.2744140625E-5,48,41,45,132030,5933,3504,362,8912,2090,1197,545,Tag0,unknown
1545004084259,0,50,1.0986328125E-5,48,41,45,132030,5933,3504,362,8912,2090,1197,545,Tag0,unknown
1545004084259,0,53,1.1645507812500002E-5,48,41,45,132030,5933,3504,362,8912,2090,1197,545,Tag0,unknown
1545004084260,0,57,1.2524414062500001E-5,48,41,45,132030,5933,3504,362,8912,2090,1197,545,Tag0,unknown
1545004084260,0,53,1.1645507812500002E-5,48,41,45,132030,5933,3504,362,8912,2090,1197,545,Tag0,unknown
1545004084260,0,50,1.0986328125E-5,48,41,45,132030,5933,3504,362,8912,2090,1197,545,Tag0,unknown
1545004084260,0,51,1.1206054687499999E-5,48,41,45,132030,5933,3504,362,8912,2090,1197,545,Tag0,unknown
1545004084260,0,72,1.58203125E-5,48,41,45,132030,5933,3504,362,8912,2090,1197,545,Tag0,unknown
1545004084275,0,89,1.95556640625E-5,48,41,45,132030,5933,3504,362,8912,2090,1197,545,Tag0,unknown
1545004084275,0,76,1.669921875E-5,48,41,45,132030,5933,3504,362,8912,2090,1197,545,Tag0,unknown
1545004084276,0,65,1.42822265625E-5,48,41,45,132030,5933,3504,362,8912,2090,1197,545,Tag0,unknown
1545004084276,0,59,1.29638671875E-5,48,41,45,132030,5933,3504,362,8912,2090,1197,545,Tag0,unknown
1545004084276,0,58,1.2744140625E-5,48,41,45,132030,5933,3504,362,8912,2090,1197,545,Tag0,unknown
1545004084276,0,55,1.20849609375E-5,48,41,45,132030,5933,3504,362,8912,2090,1197,545,Tag0,unknown
1545004084276,0,52,1.142578125E-5,48,41,45,132030,5933,3504,362,8912,2090,1197,545,Tag0,unknown
1545004084277,0,59,1.29638671875E-5,48,41,45,132030,5933,3504,362,8912,2090,1197,545,Tag0,unknown
1545004084291,0,81,1.77978515625E-5,48,41,45,132030,5933,3504,362,8912,2090,1197,545,Tag0,unknown
1545004084292,0,85,1.86767578125E-5,48,41,45,132030,5933,3504,362,8912,2090,1197,545,Tag0,unknown
1545004084292,0,72,1.58203125E-5,48,41,45,132030,5933,3504,362,8912,2090,1197,545,Tag0,unknown
1545004084292,0,68,1.4941406250000001E-5,48,41,45,132030,5933,3504,362,8912,2090,1197,545,Tag0,unknown
1545004084293,0,85,1.86767578125E-5,48,41,45,132030,5933,3504,362,8912,2090,1197,545,Tag0,unknown
1545004084293,0,103,2.26318359375E-5,48,41,45,132030,5933,3504,362,8912,2090,1197,545,Tag0,unknown
1545004084293,0,101,2.2192382812500002E-5,48,41,45,132030,5933,3504,362,8912,2090,1197,545,Tag0,unknown
1545004084293,0,91,1.99951171875E-5,48,41,45,132030,5933,3504,362,8912,2090,1197,545,Tag0,unknown
1545004084307,0,85,1.86767578125E-5,48,41,45,132030,5933,3504,362,8912,2090,1197,545,Tag0,unknown
1545004084308,0,87,1.91162109375E-5,48,41,45,132030,5933,3504,362,8912,2090,1197,545,Tag0,unknown
1545004084308,0,91,1.99951171875E-5,48,41,45,132030,5933,3504,362,8912,2090,1197,545,Tag0,unknown
1545004084308,0,85,1.86767578125E-5,48,41,45,132030,5933,3504,362,8912,2090,1197,545,Tag0,unknown
1545004084309,0,70,1.5380859375E-5,48,41,45,132030,5933,3504,362,8912,2090,1197,545,Tag0,unknown
1545004084309,0,66,1.4501953125E-5,48,41,45,132030,5933,3504,362,8912,2090,1197,545,Tag0,unknown
1545004084309,0,66,1.4501953125E-5,48,41,45,132030,5933,3504,362,8912,2090,1197,545,Tag0,unknown
1545004084309,0,65,1.42822265625E-5,48,41,45,132030,5933,3504,362,8912,2090,1197,545,Tag0,unknown
1545004084309,0,61,1.34033203125E-5,48,41,45,132030,5933,3504,362,8912,2090,1197,545,Tag0,unknown
1545004084339,0,60,1.318359375E-5,48,41,45,132030,5933,3504,362,8912,2090,1197,545,Tag0,unknown
1545004084340,0,56,1.23046875E-5,48,41,45,132030,5933,3504,362,8912,2090,1197,545,Tag0,unknown
1545004084340,0,54,1.1865234375000001E-5,48,41,45,132030,5933,3504,362,8912,2090,1197,545,Tag0,unknown
1545004084340,0,55,1.20849609375E-5,48,41,45,132030,5933,3504,362,8912,2090,1197,545,Tag0,unknown
1545004084340,0,45,9.8876953125E-6,48,41,45,132030,5933,3504,362,8912,2090,1197,545,Tag0,unknown
1545004084341,0,37,8.1298828125E-6,48,41,45,132030,5933,3504,362,8912,2090,1197,545,Tag0,unknown
1545004084341,0,43,9.448242187500001E-6,48,41,45,132030,5933,3504,362,8912,2090,1197,545,Tag0,unknown
1545004084341,0,49,1.07666015625E-5,48,41,45,132030,5933,3504,362,8912,2090,1197,545,Tag0,unknown
1545004084341,0,36,7.91015625E-6,48,41,45,132030,5933,3504,362,8912,2090,1197,545,Tag0,unknown
1545004084342,0,35,7.6904296875E-6,48,41,45,132030,5933,3504,362,8912,2090,1197,545,Tag0,unknown
1545004084342,0,37,8.1298828125E-6,48,41,45,132030,5933,3504,362,8912,2090,1197,545,Tag0,unknown
1545004084342,0,37,8.1298828125E-6,48,41,45,132030,5933,3504,362,8912,2090,1197,545,Tag0,unknown
1545004084342,0,29,6.3720703125E-6,48,41,45,132030,5933,3504,362,8912,2090,1197,545,Tag0,unknown
1545004084342,0,27,5.9326171875000005E-6,48,41,45,132030,5933,3504,362,8912,2090,1197,545,Tag0,unknown
1545004084343,0,26,5.712890625E-6,48,41,45,132030,5933,3504,362,8912,2090,1197,545,Tag0,unknown
1545004084343,0,17,3.7353515625000003E-6,48,41,45,132030,5933,3504,362,8912,2090,1197,545,Tag0,unknown
1545004084357,0,12,2.63671875E-6,48,41,45,132030,5933,3504,362,8912,2090,1197,545,Tag0,unknown
1545004084357,0,10,2.197265625E-6,48,41,45,132030,5933,3504,362,8912,2090,1197,545,Tag0,unknown
1545004084357,0,12,2.63671875E-6,48,41,45,132030,5933,3504,362,8912,2090,1197,545,Tag0,unknown
1545004084358,0,22,4.833984375E-6,48,41,45,132030,5933,3504,362,8912,2090,1197,545,Tag0,unknown
1545004084358,0,29,6.3720703125E-6,48,41,45,132030,5933,3504,362,8912,2090,1197,545,Tag0,unknown
1545004084358,0,29,6.3720703125E-6,48,41,45,132030,5933,3504,362,8912,2090,1197,545,Tag0,unknown
1545004084359,0,21,4.614257812500001E-6,48,41,45,132030,5933,3504,362,8912,2090,1197,545,Tag0,unknown
1545004084359,0,17,3.7353515625000003E-6,48,41,45,132030,5933,3504,362,8912,2090,1197,545,Tag0,unknown
1545004084376,0,17,3.7353515625000003E-6,48,41,45,132030,5933,3504,362,8912,2090,1197,545,Tag0,unknown
1545004084376,0,19,4.1748046875E-6,48,41,45,132030,5933,3504,362,8912,2090,1197,545,Tag0,unknown
1545004084377,0,32,7.03125E-6,48,41,45,132030,5933,3504,362,8912,2090,1197,545,Tag0,unknown
1545004084377,0,37,8.1298828125E-6,48,41,45,132030,5933,3504,362,8912,2090,1197,545,Tag0,unknown
1545004084377,0,28,6.15234375E-6,48,41,45,132030,5933,3504,362,8912,2090,1197,545,Tag0,unknown
1545004084377,0,24,5.2734375E-6,48,41,45,132030,5933,3504,362,8912,2090,1197,545,Tag0,unknown
1545004084377,0,33,7.2509765625E-6,48,41,45,132030,5933,3504,362,8912,2090,1197,545,Tag0,unknown
1545004084377,0,37,8.1298828125E-6,48,41,45,132030,5933,3504,362,8912,2090,1197,545,Tag0,unknown
1545004084378,0,38,8.349609375E-6,48,41,45,132030,5933,3504,362,8912,2090,1197,545,Tag0,unknown
1545004084378,0,52,1.142578125E-5,48,41,45,132030,5933,3504,362,8912,2090,1197,545,Tag0,unknown
1545004084378,0,66,1.4501953125E-5,48,41,45,132030,5933,3504,362,8912,2090,1197,545,Tag0,unknown
1545004084392,0,70,1.5380859375E-5,48,41,45,132030,5933,3504,362,8912,2090,1197,545,Tag0,unknown
1545004084392,0,61,1.34033203125E-5,48,41,45,132030,5933,3504,362,8912,2090,1197,545,Tag0,unknown
1545004084393,0,40,8.7890625E-6,48,41,45,132030,5933,3504,362,8912,2090,1197,545,Tag0,unknown
1545004084393,0,24,5.2734375E-6,48,41,45,132030,5933,3504,362,8912,2090,1197,545,Tag0,unknown
1545004084393,0,27,5.9326171875000005E-6,48,41,45,132030,5933,3504,362,8912,2090,1197,545,Tag0,unknown
1545004084393,0,39,8.5693359375E-6,48,41,45,132030,5933,3504,362,8912,2090,1197,545,Tag0,unknown
1545004084394,0,42,9.228515625000002E-6,48,41,45,132030,5933,3504,362,8912,2090,1197,545,Tag0,unknown
1545004084394,0,43,9.448242187500001E-6,48,41,45,132030,5933,3504,362,8912,2090,1197,545,Tag0,unknown
1545004084408,0,50,1.0986328125E-5,48,41,45,132030,5933,3504,362,8912,2090,1197,545,Tag0,unknown
1545004084408,0,65,1.42822265625E-5,48,41,45,132030,5933,3504,362,8912,2090,1197,545,Tag0,unknown
1545004084409,0,83,1.82373046875E-5,48,41,45,132030,5933,3504,362,8912,2090,1197,545,Tag0,unknown
1545004084409,0,89,1.95556640625E-5,48,41,45,132030,5933,3504,362,8912,2090,1197,545,Tag0,unknown
1545004084409,0,83,1.82373046875E-5,48,41,45,132030,5933,3504,362,8912,2090,1197,545,Tag0,unknown
1545004084410,0,74,1.6259765625E-5,48,41,45,132030,5933,3504,362,8912,2090,1197,545,Tag0,unknown
1545004084410,0,80,1.7578125E-5,48,41,45,132030,5933,3504,362,8912,2090,1197,545,Tag0,unknown
1545004084410,0,89,1.95556640625E-5,48,41,45,132030,5933,3504,362,8912,2090,1197,545,Tag0,unknown
1545004084426,0,91,1.99951171875E-5,48,41,45,132030,5933,3504,362,8912,2090,1197,545,Tag0,unknown
1545004084426,0,87,1.91162109375E-5,48,41,45,132030,5933,3504,362,8912,2090,1197,545,Tag0,unknown
1545004084428,0,72,1.58203125E-5,48,41,45,132030,5933,3504,362,8912,2090,1197,545,Tag0,unknown
1545004084428,0,66,1.4501953125E-5,48,41,45,132030,5933,3504,362,8912,2090,1197,545,Tag0,unknown
1545004084428,0,77,1.69189453125E-5,48,41,45,132030,5933,3504,362,8912,2090,1197,545,Tag0,unknown
1545004084428,0,91,1.99951171875E-5,48,41,45,132030,5933,3504,362,8912,2090,1197,545,Tag0,unknown
1545004084428,0,85,1.86767578125E-5,48,41,45,132030,5933,3504,362,8912,2090,1197,545,Tag0,unknown
1545004084429,0,68,1.4941406250000001E-5,48,41,45,132030,5933,3504,362,8912,2090,1197,545,Tag0,unknown
1545004084447,0,64,1.40625E-5,37,51,45,811676,46758,71476,16753042,26023,13793,3479,3305,Tag0,unknown
1545004084447,0,71,1.56005859375E-5,37,51,45,811676,46758,71476,16753042,26023,13793,3479,3305,Tag0,unknown
1545004084448,0,72,1.58203125E-5,37,51,45,811676,46758,71476,16753042,26023,13793,3479,3305,Tag0,unknown
1545004084448,0,59,1.29638671875E-5,37,51,45,811676,46758,71476,16753042,26023,13793,3479,3305,Tag0,unknown
1545004084448,0,51,1.1206054687499999E-5,37,51,45,811676,46758,71476,16753042,26023,13793,3479,3305,Tag0,unknown
1545004084448,0,53,1.1645507812500002E-5,37,51,45,811676,46758,71476,16753042,26023,13793,3479,3305,Tag0,unknown
1545004084449,0,49,1.07666015625E-5,37,51,45,811676,46758,71476,16753042,26023,13793,3479,3305,Tag0,unknown
1545004084449,0,35,7.6904296875E-6,37,51,45,811676,46758,71476,16753042,26023,13793,3479,3305,Tag0,unknown
1545004084449,0,22,4.833984375E-6,37,51,45,811676,46758,71476,16753042,26023,13793,3479,3305,Tag0,unknown
1545004084462,0,27,5.9326171875000005E-6,37,51,45,811676,46758,71476,16753042,26023,13793,3479,3305,Tag0,unknown
1545004084462,0,48,1.0546875E-5,37,51,45,811676,46758,71476,16753042,26023,13793,3479,3305,Tag0,unknown
1545004084462,0,51,1.1206054687499999E-5,37,51,45,811676,46758,71476,16753042,26023,13793,3479,3305,Tag0,unknown
1545004084463,0,41,9.008789062499999E-6,37,51,45,811676,46758,71476,16753042,26023,13793,3479,3305,Tag0,unknown
1545004084463,0,37,8.1298828125E-6,37,51,45,811676,46758,71476,16753042,26023,13793,3479,3305,Tag0,unknown
1545004084463,0,37,8.1298828125E-6,37,51,45,811676,46758,71476,16753042,26023,13793,3479,3305,Tag0,unknown
1545004084463,0,28,6.15234375E-6,37,51,45,811676,46758,71476,16753042,26023,13793,3479,3305,Tag0,unknown
1545004084463,0,24,5.2734375E-6,37,51,45,811676,46758,71476,16753042,26023,13793,3479,3305,Tag0,unknown
1545004084465,0,24,5.2734375E-6,37,51,45,811676,46758,71476,16753042,26023,13793,3479,3305,Tag0,unknown
1545004084465,0,32,7.03125E-6,37,51,45,811676,46758,71476,16753042,26023,13793,3479,3305,Tag0,unknown
1545004084466,0,38,8.349609375E-6,37,51,45,811676,46758,71476,16753042,26023,13793,3479,3305,Tag0,unknown
1545004084475,0,37,8.1298828125E-6,37,51,45,811676,46758,71476,16753042,26023,13793,3479,3305,Tag0,unknown
1545004084475,0,23,5.0537109375E-6,37,51,45,811676,46758,71476,16753042,26023,13793,3479,3305,Tag0,unknown
1545004084475,0,13,2.8564453125E-6,37,51,45,811676,46758,71476,16753042,26023,13793,3479,3305,Tag0,unknown
1545004084476,0,18,3.955078125E-6,37,51,45,811676,46758,71476,16753042,26023,13793,3479,3305,Tag0,unknown
1545004084476,0,17,3.7353515625000003E-6,37,51,45,811676,46758,71476,16753042,26023,13793,3479,3305,Tag0,unknown
1545004084476,0,21,4.614257812500001E-6,37,51,45,811676,46758,71476,16753042,26023,13793,3479,3305,Tag0,unknown
1545004084491,0,37,8.1298828125E-6,37,51,45,811676,46758,71476,16753042,26023,13793,3479,3305,Tag0,unknown
1545004084491,0,48,1.0546875E-5,37,51,45,811676,46758,71476,16753042,26023,13793,3479,3305,Tag0,unknown
1545004084491,0,41,9.008789062499999E-6,37,51,45,811676,46758,71476,16753042,26023,13793,3479,3305,Tag0,unknown
1545004084491,0,32,7.03125E-6,37,51,45,811676,46758,71476,16753042,26023,13793,3479,3305,Tag0,unknown
1545004084492,0,23,5.0537109375E-6,37,51,45,811676,46758,71476,16753042,26023,13793,3479,3305,Tag0,unknown
1545004084492,0,6,1.318359375E-6,37,51,45,811676,46758,71476,16753042,26023,13793,3479,3305,Tag0,unknown
1545004084492,0,-259,-5.69091796875E-5,37,51,45,811676,46758,71476,16753042,26023,13793,3479,3305,Tag0,unknown
1545004084492,0,3,6.591796875E-7,37,51,45,811676,46758,71476,16753042,26023,13793,3479,3305,Tag0,unknown
1545004084493,0,10,2.197265625E-6,37,51,45,811676,46758,71476,16753042,26023,13793,3479,3305,Tag0,unknown
1545004084508,0,12,2.63671875E-6,37,51,45,811676,46758,71476,16753042,26023,13793,3479,3305,Tag0,unknown
1545004084508,0,17,3.7353515625000003E-6,37,51,45,811676,46758,71476,16753042,26023,13793,3479,3305,Tag0,unknown
1545004084509,0,23,5.0537109375E-6,37,51,45,811676,46758,71476,16753042,26023,13793,3479,3305,Tag0,unknown
1545004084509,0,23,5.0537109375E-6,37,51,45,811676,46758,71476,16753042,26023,13793,3479,3305,Tag0,unknown
1545004084509,0,18,3.955078125E-6,37,51,45,811676,46758,71476,16753042,26023,13793,3479,3305,Tag0,unknown
1545004084510,0,1,2.197265625E-7,37,51,45,811676,46758,71476,16753042,26023,13793,3479,3305,Tag0,unknown
1545004084510,0,-265,-5.82275390625E-5,37,51,45,811676,46758,71476,16753042,26023,13793,3479,3305,Tag0,unknown
1545004084510,0,-267,-5.86669921875E-5,37,51,45,811676,46758,71476,16753042,26023,13793,3479,3305,Tag0,unknown
1545004084510,0,-268,-5.8886718750000006E-5,37,51,45,811676,46758,71476,16753042,26023,13793,3479,3305,Tag0,unknown
1545004084525,0,-273,-5.998535156250001E-5,37,51,45,811676,46758,71476,16753042,26023,13793,3479,3305,Tag0,unknown
1545004084525,0,-267,-5.86669921875E-5,37,51,45,811676,46758,71476,16753042,26023,13793,3479,3305,Tag0,unknown
1545004084526,0,-257,-5.64697265625E-5,37,51,45,811676,46758,71476,16753042,26023,13793,3479,3305,Tag0,unknown
1545004084526,0,4,8.7890625E-7,37,51,45,811676,46758,71476,16753042,26023,13793,3479,3305,Tag0,unknown
1545004084526,0,-258,-5.6689453125000004E-5,37,51,45,811676,46758,71476,16753042,26023,13793,3479,3305,Tag0,unknown
1545004084526,0,-258,-5.6689453125000004E-5,37,51,45,811676,46758,71476,16753042,26023,13793,3479,3305,Tag0,unknown
1545004084527,0,9,1.9775390625E-6,37,51,45,811676,46758,71476,16753042,26023,13793,3479,3305,Tag0,unknown
1545004084545,0,25,5.4931640625E-6,37,51,45,811676,46758,71476,16753042,26023,13793,3479,3305,Tag0,unknown
1545004084545,0,40,8.7890625E-6,37,51,45,811676,46758,71476,16753042,26023,13793,3479,3305,Tag0,unknown
1545004084547,0,52,1.142578125E-5,37,51,45,811676,46758,71476,16753042,26023,13793,3479,3305,Tag0,unknown
1545004084547,0,50,1.0986328125E-5,37,51,45,811676,46758,71476,16753042,26023,13793,3479,3305,Tag0,unknown
1545004084547,0,39,8.5693359375E-6,37,51,45,811676,46758,71476,16753042,26023,13793,3479,3305,Tag0,unknown
1545004084548,0,43,9.448242187500001E-6,37,51,45,811676,46758,71476,16753042,26023,13793,3479,3305,Tag0,unknown
1545004084548,0,52,1.142578125E-5,37,51,45,811676,46758,71476,16753042,26023,13793,3479,3305,Tag0,unknown
1545004084548,0,49,1.07666015625E-5,37,51,45,811676,46758,71476,16753042,26023,13793,3479,3305,Tag0,unknown
1545004084548,0,38,8.349609375E-6,37,51,45,811676,46758,71476,16753042,26023,13793,3479,3305,Tag0,unknown
1545004084548,0,39,8.5693359375E-6,37,51,45,811676,46758,71476,16753042,26023,13793,3479,3305,Tag0,unknown
1545004084549,0,48,1.0546875E-5,37,51,45,811676,46758,71476,16753042,26023,13793,3479,3305,Tag0,unknown
1545004084558,0,49,1.07666015625E-5,37,51,45,811676,46758,71476,16753042,26023,13793,3479,3305,Tag0,unknown
1545004084558,0,41,9.008789062499999E-6,37,51,45,811676,46758,71476,16753042,26023,13793,3479,3305,Tag0,unknown
1545004084559,0,29,6.3720703125E-6,37,51,45,811676,46758,71476,16753042,26023,13793,3479,3305,Tag0,unknown
1545004084559,0,28,6.15234375E-6,37,51,45,811676,46758,71476,16753042,26023,13793,3479,3305,Tag0,unknown
1545004084559,0,34,7.4707031250000005E-6,37,51,45,811676,46758,71476,16753042,26023,13793,3479,3305,Tag0,unknown
1545004084559,0,32,7.03125E-6,37,51,45,811676,46758,71476,16753042,26023,13793,3479,3305,Tag0,unknown
1545004084582,0,25,5.4931640625E-6,37,51,45,811676,46758,71476,16753042,26023,13793,3479,3305,Tag0,unknown
1545004084592,0,32,7.03125E-6,37,51,45,811676,46758,71476,16753042,26023,13793,3479,3305,Tag0,unknown
1545004084592,0,22,4.833984375E-6,37,51,45,811676,46758,71476,16753042,26023,13793,3479,3305,Tag0,unknown
1545004084593,0,-258,-5.6689453125000004E-5,37,51,45,811676,46758,71476,16753042,26023,13793,3479,3305,Tag0,unknown
1545004084593,0,-280,-6.15234375E-5,37,51,45,811676,46758,71476,16753042,26023,13793,3479,3305,Tag0,unknown
1545004084593,0,-307,-6.74560546875E-5,37,51,45,811676,46758,71476,16753042,26023,13793,3479,3305,Tag0,unknown
1545004084593,0,-312,-6.85546875E-5,37,51,45,811676,46758,71476,16753042,26023,13793,3479,3305,Tag0,unknown
1545004084593,0,-266,-5.8447265625E-5,37,51,45,811676,46758,71476,16753042,26023,13793,3479,3305,Tag0,unknown
1545004084593,0,59,1.29638671875E-5,37,51,45,811676,46758,71476,16753042,26023,13793,3479,3305,Tag0,unknown
1545004084594,0,98,2.1533203125E-5,37,51,45,811676,46758,71476,16753042,26023,13793,3479,3305,Tag0,unknown
1545004084594,0,60,1.318359375E-5,37,51,45,811676,46758,71476,16753042,26023,13793,3479,3305,Tag0,unknown
1545004084611,0,-258,-5.6689453125000004E-5,37,51,45,811676,46758,71476,16753042,26023,13793,3479,3305,Tag0,unknown
1545004084611,0,-283,-6.218261718750001E-5,37,51,45,811676,46758,71476,16753042,26023,13793,3479,3305,Tag0,unknown
1545004084612,0,-269,-5.9106445312499996E-5,37,51,45,811676,46758,71476,16753042,26023,13793,3479,3305,Tag0,unknown
1545004084612,0,9,1.9775390625E-6,37,51,45,811676,46758,71476,16753042,26023,13793,3479,3305,Tag0,unknown
1545004084612,0,28,6.15234375E-6,37,51,45,811676,46758,71476,16753042,26023,13793,3479,3305,Tag0,unknown
1545004084612,0,34,7.4707031250000005E-6,37,51,45,811676,46758,71476,16753042,26023,13793,3479,3305,Tag0,unknown
1545004084612,0,21,4.614257812500001E-6,37,51,45,811676,46758,71476,16753042,26023,13793,3479,3305,Tag0,unknown
1545004084613,0,-259,-5.69091796875E-5,37,51,45,811676,46758,71476,16753042,26023,13793,3479,3305,Tag0,unknown
1545004084613,0,-283,-6.218261718750001E-5,37,51,45,811676,46758,71476,16753042,26023,13793,3479,3305,Tag0,unknown
1545004084613,0,-300,-6.591796875E-5,37,51,45,811676,46758,71476,16753042,26023,13793,3479,3305,Tag0,unknown
1545004084613,0,-305,-6.70166015625E-5,37,51,45,811676,46758,71476,16753042,26023,13793,3479,3305,Tag0,unknown
1545004084614,0,-293,-6.43798828125E-5,37,51,45,811676,46758,71476,16753042,26023,13793,3479,3305,Tag0,unknown
1545004084628,0,-282,-6.1962890625E-5,37,51,45,811676,46758,71476,16753042,26023,13793,3479,3305,Tag0,unknown
1545004084628,0,-274,-6.0205078124999997E-5,37,51,45,811676,46758,71476,16753042,26023,13793,3479,3305,Tag0,unknown
1545004084628,0,-269,-5.9106445312499996E-5,37,51,45,811676,46758,71476,16753042,26023,13793,3479,3305,Tag0,unknown
1545004084628,0,-276,-6.064453125E-5,37,51,45,811676,46758,71476,16753042,26023,13793,3479,3305,Tag0,unknown
1545004084629,0,-291,-6.39404296875E-5,37,51,45,811676,46758,71476,16753042,26023,13793,3479,3305,Tag0,unknown
1545004084629,0,-299,-6.56982421875E-5,37,51,45,811676,46758,71476,16753042,26023,13793,3479,3305,Tag0,unknown
1545004084629,0,-305,-6.70166015625E-5,37,51,45,811676,46758,71476,16753042,26023,13793,3479,3305,Tag0,unknown
1545004084629,0,-300,-6.591796875E-5,37,51,45,811676,46758,71476,16753042,26023,13793,3479,3305,Tag0,unknown
1545004084629,0,-293,-6.43798828125E-5,37,51,45,811676,46758,71476,16753042,26023,13793,3479,3305,Tag0,unknown
1545004084630,0,-284,-6.240234375E-5,37,51,45,811676,46758,71476,16753042,26023,13793,3479,3305,Tag0,unknown
1545004084630,0,-273,-5.998535156250001E-5,37,51,45,811676,46758,71476,16753042,26023,13793,3479,3305,Tag0,unknown
1545004084630,0,-258,-5.6689453125000004E-5,37,51,45,811676,46758,71476,16753042,26023,13793,3479,3305,Tag0,unknown
1545004084644,0,11,2.4169921875E-6,37,51,45,811676,46758,71476,16753042,26023,13793,3479,3305,Tag0,unknown
1545004084645,0,21,4.614257812500001E-6,37,51,45,811676,46758,71476,16753042,26023,13793,3479,3305,Tag0,unknown
1545004084645,0,18,3.955078125E-6,37,51,45,811676,46758,71476,16753042,26023,13793,3479,3305,Tag0,unknown
1545004084645,0,11,2.4169921875E-6,37,51,45,811676,46758,71476,16753042,26023,13793,3479,3305,Tag0,unknown
1545004084646,0,7,1.5380859375E-6,37,51,45,811676,46758,71476,16753042,26023,13793,3479,3305,Tag0,unknown
1545004084646,0,10,2.197265625E-6,37,51,45,811676,46758,71476,16753042,26023,13793,3479,3305,Tag0,unknown
1545004084647,0,25,5.4931640625E-6,37,51,45,811676,46758,71476,16753042,26023,13793,3479,3305,Tag0,unknown
1545004084647,0,32,7.03125E-6,37,51,45,811676,46758,71476,16753042,26023,13793,3479,3305,Tag0,unknown
1545004084647,0,33,7.2509765625E-6,37,51,45,811676,46758,71476,16753042,26023,13793,3479,3305,Tag0,unknown
1545004084648,0,39,8.5693359375E-6,37,51,45,811676,46758,71476,16753042,26023,13793,3479,3305,Tag0,unknown
1545004084657,0,48,1.0546875E-5,37,51,45,811676,46758,71476,16753042,26023,13793,3479,3305,Tag0,unknown
1545004084658,0,54,1.1865234375000001E-5,37,51,45,811676,46758,71476,16753042,26023,13793,3479,3305,Tag0,unknown
1545004084658,0,57,1.2524414062500001E-5,37,51,45,811676,46758,71476,16753042,26023,13793,3479,3305,Tag0,unknown
1545004084658,0,57,1.2524414062500001E-5,37,51,45,811676,46758,71476,16753042,26023,13793,3479,3305,Tag0,unknown
1545004084659,0,59,1.29638671875E-5,37,51,45,811676,46758,71476,16753042,26023,13793,3479,3305,Tag0,unknown
1545004084659,0,71,1.56005859375E-5,37,51,45,811676,46758,71476,16753042,26023,13793,3479,3305,Tag0,unknown
1545004084659,0,75,1.64794921875E-5,37,51,45,811676,46758,71476,16753042,26023,13793,3479,3305,Tag0,unknown
1545004084674,0,69,1.51611328125E-5,37,51,45,811676,46758,71476,16753042,26023,13793,3479,3305,Tag0,unknown
1545004084675,0,66,1.4501953125E-5,37,51,45,811676,46758,71476,16753042,26023,13793,3479,3305,Tag0,unknown
1545004084675,0,64,1.40625E-5,37,51,45,811676,46758,71476,16753042,26023,13793,3479,3305,Tag0,unknown
1545004084675,0,66,1.4501953125E-5,37,51,45,811676,46758,71476,16753042,26023,13793,3479,3305,Tag0,unknown
1545004084676,0,74,1.6259765625E-5,37,51,45,811676,46758,71476,16753042,26023,13793,3479,3305,Tag0,unknown
1545004084676,0,83,1.82373046875E-5,37,51,45,811676,46758,71476,16753042,26023,13793,3479,3305,Tag0,unknown
1545004084676,0,87,1.91162109375E-5,37,51,45,811676,46758,71476,16753042,26023,13793,3479,3305,Tag0,unknown
1545004084676,0,93,2.04345703125E-5,37,51,45,811676,46758,71476,16753042,26023,13793,3479,3305,Tag0,unknown
1545004084676,0,89,1.95556640625E-5,37,51,45,811676,46758,71476,16753042,26023,13793,3479,3305,Tag0,unknown
1545004084695,0,73,1.6040039062500002E-5,37,51,45,811676,46758,71476,16753042,26023,13793,3479,3305,Tag0,unknown
1545004084696,0,66,1.4501953125E-5,37,51,45,811676,46758,71476,16753042,26023,13793,3479,3305,Tag0,unknown
1545004084696,0,81,1.77978515625E-5,37,51,45,811676,46758,71476,16753042,26023,13793,3479,3305,Tag0,unknown
1545004084696,0,101,2.2192382812500002E-5,37,51,45,811676,46758,71476,16753042,26023,13793,3479,3305,Tag0,unknown
1545004084696,0,107,2.35107421875E-5,37,51,45,811676,46758,71476,16753042,26023,13793,3479,3305,Tag0,unknown
1545004084696,0,92,2.021484375E-5,37,51,45,811676,46758,71476,16753042,26023,13793,3479,3305,Tag0,unknown
1545004084697,0,73,1.6040039062500002E-5,37,51,45,811676,46758,71476,16753042,26023,13793,3479,3305,Tag0,unknown
1545004084697,0,72,1.58203125E-5,37,51,45,811676,46758,71476,16753042,26023,13793,3479,3305,Tag0,unknown
1545004084697,0,82,1.8017578124999998E-5,37,51,45,811676,46758,71476,16753042,26023,13793,3479,3305,Tag0,unknown
1545004084698,0,87,1.91162109375E-5,37,51,45,811676,46758,71476,16753042,26023,13793,3479,3305,Tag0,unknown
1545004084708,0,88,1.93359375E-5,37,51,45,811676,46758,71476,16753042,26023,13793,3479,3305,Tag0,unknown
1545004084708,0,83,1.82373046875E-5,37,51,45,811676,46758,71476,16753042,26023,13793,3479,3305,Tag0,unknown
1545004084708,0,72,1.58203125E-5,37,51,45,811676,46758,71476,16753042,26023,13793,3479,3305,Tag0,unknown
1545004084709,0,69,1.51611328125E-5,37,51,45,811676,46758,71476,16753042,26023,13793,3479,3305,Tag0,unknown
1545004084709,0,70,1.5380859375E-5,37,51,45,811676,46758,71476,16753042,26023,13793,3479,3305,Tag0,unknown
1545004084709,0,71,1.56005859375E-5,37,51,45,811676,46758,71476,16753042,26023,13793,3479,3305,Tag0,unknown
1545004084724,0,71,1.56005859375E-5,37,51,45,811676,46758,71476,16753042,26023,13793,3479,3305,Tag0,unknown
1545004084725,0,83,1.82373046875E-5,37,51,45,811676,46758,71476,16753042,26023,13793,3479,3305,Tag0,unknown
1545004084725,0,97,2.13134765625E-5,37,51,45,811676,46758,71476,16753042,26023,13793,3479,3305,Tag0,unknown
1545004084725,0,93,2.04345703125E-5,37,51,45,811676,46758,71476,16753042,26023,13793,3479,3305,Tag0,unknown
1545004084726,0,75,1.64794921875E-5,37,51,45,811676,46758,71476,16753042,26023,13793,3479,3305,Tag0,unknown
1545004084726,0,58,1.2744140625E-5,37,51,45,811676,46758,71476,16753042,26023,13793,3479,3305,Tag0,unknown
1545004084726,0,54,1.1865234375000001E-5,37,51,45,811676,46758,71476,16753042,26023,13793,3479,3305,Tag0,unknown
1545004084726,0,68,1.4941406250000001E-5,37,51,45,811676,46758,71476,16753042,26023,13793,3479,3305,Tag0,unknown
1545004084726,0,86,1.8896484375000003E-5,37,51,45,811676,46758,71476,16753042,26023,13793,3479,3305,Tag0,unknown
1545004084743,0,92,2.021484375E-5,37,51,45,811676,46758,71476,16753042,26023,13793,3479,3305,Tag0,unknown
1545004084744,0,83,1.82373046875E-5,37,51,45,811676,46758,71476,16753042,26023,13793,3479,3305,Tag0,unknown
1545004084744,0,53,1.1645507812500002E-5,37,51,45,811676,46758,71476,16753042,26023,13793,3479,3305,Tag0,unknown
1545004084744,0,36,7.91015625E-6,37,51,45,811676,46758,71476,16753042,26023,13793,3479,3305,Tag0,unknown
1545004084745,0,49,1.07666015625E-5,37,51,45,811676,46758,71476,16753042,26023,13793,3479,3305,Tag0,unknown
1545004084745,0,73,1.6040039062500002E-5,37,51,45,811676,46758,71476,16753042,26023,13793,3479,3305,Tag0,unknown
1545004084745,0,91,1.99951171875E-5,37,51,45,811676,46758,71476,16753042,26023,13793,3479,3305,Tag0,unknown
1545004084745,0,86,1.8896484375000003E-5,37,51,45,811676,46758,71476,16753042,26023,13793,3479,3305,Tag0,unknown
1545004084745,0,75,1.64794921875E-5,37,51,45,811676,46758,71476,16753042,26023,13793,3479,3305,Tag0,unknown
1545004084760,0,80,1.7578125E-5,37,51,45,811676,46758,71476,16753042,26023,13793,3479,3305,Tag0,unknown
1545004084760,0,89,1.95556640625E-5,37,51,45,811676,46758,71476,16753042,26023,13793,3479,3305,Tag0,unknown
1545004084761,0,92,2.021484375E-5,37,51,45,811676,46758,71476,16753042,26023,13793,3479,3305,Tag0,unknown
1545004084761,0,89,1.95556640625E-5,37,51,45,811676,46758,71476,16753042,26023,13793,3479,3305,Tag0,unknown
1545004084761,0,83,1.82373046875E-5,37,51,45,811676,46758,71476,16753042,26023,13793,3479,3305,Tag0,unknown
1545004084761,0,69,1.51611328125E-5,37,51,45,811676,46758,71476,16753042,26023,13793,3479,3305,Tag0,unknown
1545004084762,0,53,1.1645507812500002E-5,37,51,45,811676,46758,71476,16753042,26023,13793,3479,3305,Tag0,unknown
1545004084775,0,42,9.228515625000002E-6,37,51,45,811676,46758,71476,16753042,26023,13793,3479,3305,Tag0,unknown
1545004084775,0,41,9.008789062499999E-6,37,51,45,811676,46758,71476,16753042,26023,13793,3479,3305,Tag0,unknown
1545004084777,0,41,9.008789062499999E-6,37,51,45,811676,46758,71476,16753042,26023,13793,3479,3305,Tag0,unknown
1545004084777,0,50,1.0986328125E-5,37,51,45,811676,46758,71476,16753042,26023,13793,3479,3305,Tag0,unknown
1545004084777,0,59,1.29638671875E-5,37,51,45,811676,46758,71476,16753042,26023,13793,3479,3305,Tag0,unknown
1545004084777,0,60,1.318359375E-5,37,51,45,811676,46758,71476,16753042,26023,13793,3479,3305,Tag0,unknown
1545004084777,0,52,1.142578125E-5,37,51,45,811676,46758,71476,16753042,26023,13793,3479,3305,Tag0,unknown
1545004084778,0,53,1.1645507812500002E-5,37,51,45,811676,46758,71476,16753042,26023,13793,3479,3305,Tag0,unknown
1545004084778,0,65,1.42822265625E-5,37,51,45,811676,46758,71476,16753042,26023,13793,3479,3305,Tag0,unknown
1545004084791,0,72,1.58203125E-5,37,51,45,811676,46758,71476,16753042,26023,13793,3479,3305,Tag0,unknown
1545004084792,0,70,1.5380859375E-5,37,51,45,811676,46758,71476,16753042,26023,13793,3479,3305,Tag0,unknown
1545004084793,0,57,1.2524414062500001E-5,37,51,45,811676,46758,71476,16753042,26023,13793,3479,3305,Tag0,unknown
1545004084793,0,57,1.2524414062500001E-5,37,51,45,811676,46758,71476,16753042,26023,13793,3479,3305,Tag0,unknown
1545004084793,0,67,1.4721679687500002E-5,37,51,45,811676,46758,71476,16753042,26023,13793,3479,3305,Tag0,unknown
1545004084808,0,73,1.6040039062500002E-5,37,51,45,811676,46758,71476,16753042,26023,13793,3479,3305,Tag0,unknown
1545004084808,0,70,1.5380859375E-5,37,51,45,811676,46758,71476,16753042,26023,13793,3479,3305,Tag0,unknown
1545004084808,0,49,1.07666015625E-5,37,51,45,811676,46758,71476,16753042,26023,13793,3479,3305,Tag0,unknown
1545004084808,0,41,9.008789062499999E-6,37,51,45,811676,46758,71476,16753042,26023,13793,3479,3305,Tag0,unknown
1545004084809,0,49,1.07666015625E-5,37,51,45,811676,46758,71476,16753042,26023,13793,3479,3305,Tag0,unknown
1545004084809,0,38,8.349609375E-6,37,51,45,811676,46758,71476,16753042,26023,13793,3479,3305,Tag0,unknown
1545004084809,0,22,4.833984375E-6,37,51,45,811676,46758,71476,16753042,26023,13793,3479,3305,Tag0,unknown
1545004084809,0,7,1.5380859375E-6,37,51,45,811676,46758,71476,16753042,26023,13793,3479,3305,Tag0,unknown
1545004084809,0,-264,-5.80078125E-5,37,51,45,811676,46758,71476,16753042,26023,13793,3479,3305,Tag0,unknown
1545004084810,0,-277,-6.0864257812500005E-5,37,51,45,811676,46758,71476,16753042,26023,13793,3479,3305,Tag0,unknown
1545004084810,0,-282,-6.1962890625E-5,37,51,45,811676,46758,71476,16753042,26023,13793,3479,3305,Tag0,unknown
1545004084810,0,-280,-6.15234375E-5,37,51,45,811676,46758,71476,16753042,26023,13793,3479,3305,Tag0,unknown
1545004084825,0,-268,-5.8886718750000006E-5,37,51,45,811676,46758,71476,16753042,26023,13793,3479,3305,Tag0,unknown
1545004084826,0,-264,-5.80078125E-5,37,51,45,811676,46758,71476,16753042,26023,13793,3479,3305,Tag0,unknown
1545004084826,0,-266,-5.8447265625E-5,37,51,45,811676,46758,71476,16753042,26023,13793,3479,3305,Tag0,unknown
1545004084826,0,-257,-5.64697265625E-5,37,51,45,811676,46758,71476,16753042,26023,13793,3479,3305,Tag0,unknown
1545004084827,0,10,2.197265625E-6,37,51,45,811676,46758,71476,16753042,26023,13793,3479,3305,Tag0,unknown
1545004084827,0,19,4.1748046875E-6,37,51,45,811676,46758,71476,16753042,26023,13793,3479,3305,Tag0,unknown
1545004084827,0,26,5.712890625E-6,37,51,45,811676,46758,71476,16753042,26023,13793,3479,3305,Tag0,unknown
1545004084827,0,38,8.349609375E-6,37,51,45,811676,46758,71476,16753042,26023,13793,3479,3305,Tag0,unknown
1545004084827,0,45,9.8876953125E-6,37,51,45,811676,46758,71476,16753042,26023,13793,3479,3305,Tag0,unknown
1545004084828,0,48,1.0546875E-5,37,51,45,811676,46758,71476,16753042,26023,13793,3479,3305,Tag0,unknown
1545004084840,0,44,9.66796875E-6,37,51,45,811676,46758,71476,16753042,26023,13793,3479,3305,Tag0,unknown
1545004084841,0,44,9.66796875E-6,37,51,45,811676,46758,71476,16753042,26023,13793,3479,3305,Tag0,unknown
1545004084841,0,41,9.008789062499999E-6,37,51,45,811676,46758,71476,16753042,26023,13793,3479,3305,Tag0,unknown
1545004084841,0,33,7.2509765625E-6,37,51,45,811676,46758,71476,16753042,26023,13793,3479,3305,Tag0,unknown
1545004084842,0,41,9.008789062499999E-6,37,51,45,811676,46758,71476,16753042,26023,13793,3479,3305,Tag0,unknown
1545004084842,0,56,1.23046875E-5,37,51,45,811676,46758,71476,16753042,26023,13793,3479,3305,Tag0,unknown
1545004084842,0,61,1.34033203125E-5,37,51,45,811676,46758,71476,16753042,26023,13793,3479,3305,Tag0,unknown
1545004084857,0,61,1.34033203125E-5,37,51,45,811676,46758,71476,16753042,26023,13793,3479,3305,Tag0,unknown
1545004084857,0,65,1.42822265625E-5,37,51,45,811676,46758,71476,16753042,26023,13793,3479,3305,Tag0,unknown
1545004084857,0,50,1.0986328125E-5,37,51,45,811676,46758,71476,16753042,26023,13793,3479,3305,Tag0,unknown
1545004084858,0,8,1.7578125E-6,37,51,45,811676,46758,71476,16753042,26023,13793,3479,3305,Tag0,unknown
1545004084858,0,-286,-6.2841796875E-5,37,51,45,811676,46758,71476,16753042,26023,13793,3479,3305,Tag0,unknown
1545004084858,0,-280,-6.15234375E-5,37,51,45,811676,46758,71476,16753042,26023,13793,3479,3305,Tag0,unknown
1545004084859,0,29,6.3720703125E-6,37,51,45,811676,46758,71476,16753042,26023,13793,3479,3305,Tag0,unknown
1545004084859,0,88,1.93359375E-5,37,51,45,811676,46758,71476,16753042,26023,13793,3479,3305,Tag0,unknown
1545004084875,0,108,2.3730468750000002E-5,37,51,45,811676,46758,71476,16753042,26023,13793,3479,3305,Tag0,unknown
1545004084875,0,88,1.93359375E-5,37,51,45,811676,46758,71476,16753042,26023,13793,3479,3305,Tag0,unknown
1545004084875,0,56,1.23046875E-5,37,51,45,811676,46758,71476,16753042,26023,13793,3479,3305,Tag0,unknown
1545004084875,0,37,8.1298828125E-6,37,51,45,811676,46758,71476,16753042,26023,13793,3479,3305,Tag0,unknown
1545004084876,0,59,1.29638671875E-5,37,51,45,811676,46758,71476,16753042,26023,13793,3479,3305,Tag0,unknown
1545004084876,0,103,2.26318359375E-5,37,51,45,811676,46758,71476,16753042,26023,13793,3479,3305,Tag0,unknown
1545004084876,0,108,2.3730468750000002E-5,37,51,45,811676,46758,71476,16753042,26023,13793,3479,3305,Tag0,unknown
1545004084876,0,88,1.93359375E-5,37,51,45,811676,46758,71476,16753042,26023,13793,3479,3305,Tag0,unknown
1545004084877,0,55,1.20849609375E-5,37,51,45,811676,46758,71476,16753042,26023,13793,3479,3305,Tag0,unknown
1545004084896,0,16,3.515625E-6,37,51,45,811676,46758,71476,16753042,26023,13793,3479,3305,Tag0,unknown
1545004084897,0,-279,-6.13037109375E-5,37,51,45,811676,46758,71476,16753042,26023,13793,3479,3305,Tag0,unknown
1545004084897,0,-293,-6.43798828125E-5,37,51,45,811676,46758,71476,16753042,26023,13793,3479,3305,Tag0,unknown
1545004084899,0,-279,-6.13037109375E-5,37,51,45,811676,46758,71476,16753042,26023,13793,3479,3305,Tag0,unknown
1545004084900,0,8,1.7578125E-6,37,51,45,811676,46758,71476,16753042,26023,13793,3479,3305,Tag0,unknown
1545004084901,0,43,9.448242187500001E-6,37,51,45,811676,46758,71476,16753042,26023,13793,3479,3305,Tag0,unknown
1545004084901,0,67,1.4721679687500002E-5,37,51,45,811676,46758,71476,16753042,26023,13793,3479,3305,Tag0,unknown
1545004084903,0,74,1.6259765625E-5,37,51,45,811676,46758,71476,16753042,26023,13793,3479,3305,Tag0,unknown
1545004084903,0,91,1.99951171875E-5,37,51,45,811676,46758,71476,16753042,26023,13793,3479,3305,Tag0,unknown
1545004084903,0,116,2.548828125E-5,37,51,45,811676,46758,71476,16753042,26023,13793,3479,3305,Tag0,unknown
1545004084903,0,-124,-2.724609375E-5,37,51,45,811676,46758,71476,16753042,26023,13793,3479,3305,Tag0,unknown
1545004084903,0,-119,-2.6147460937500004E-5,37,51,45,811676,46758,71476,16753042,26023,13793,3479,3305,Tag0,unknown
1545004084908,0,-117,-2.5708007812499998E-5,37,51,45,811676,46758,71476,16753042,26023,13793,3479,3305,Tag0,unknown
1545004084909,0,-112,-2.4609375E-5,37,51,45,811676,46758,71476,16753042,26023,13793,3479,3305,Tag0,unknown
1545004084909,0,-116,-2.548828125E-5,37,51,45,811676,46758,71476,16753042,26023,13793,3479,3305,Tag0,unknown
1545004084909,0,-116,-2.548828125E-5,37,51,45,811676,46758,71476,16753042,26023,13793,3479,3305,Tag0,unknown
1545004084909,0,-119,-2.6147460937500004E-5,37,51,45,811676,46758,71476,16753042,26023,13793,3479,3305,Tag0,unknown
1545004084910,0,120,2.63671875E-5,37,51,45,811676,46758,71476,16753042,26023,13793,3479,3305,Tag0,unknown
1545004084926,0,91,1.99951171875E-5,37,51,45,811676,46758,71476,16753042,26023,13793,3479,3305,Tag0,unknown
1545004084926,0,70,1.5380859375E-5,37,51,45,811676,46758,71476,16753042,26023,13793,3479,3305,Tag0,unknown
1545004084927,0,70,1.5380859375E-5,37,51,45,811676,46758,71476,16753042,26023,13793,3479,3305,Tag0,unknown
1545004084927,0,80,1.7578125E-5,37,51,45,811676,46758,71476,16753042,26023,13793,3479,3305,Tag0,unknown
1545004084928,0,86,1.8896484375000003E-5,37,51,45,811676,46758,71476,16753042,26023,13793,3479,3305,Tag0,unknown
1545004084928,0,97,2.13134765625E-5,37,51,45,811676,46758,71476,16753042,26023,13793,3479,3305,Tag0,unknown
1545004084928,0,98,2.1533203125E-5,37,51,45,811676,46758,71476,16753042,26023,13793,3479,3305,Tag0,unknown
1545004084928,0,87,1.91162109375E-5,37,51,45,811676,46758,71476,16753042,26023,13793,3479,3305,Tag0,unknown
1545004084929,0,76,1.669921875E-5,37,51,45,811676,46758,71476,16753042,26023,13793,3479,3305,Tag0,unknown
1545004084944,0,76,1.669921875E-5,37,51,45,811676,46758,71476,16753042,26023,13793,3479,3305,Tag0,unknown
1545004084944,0,75,1.64794921875E-5,37,51,45,811676,46758,71476,16753042,26023,13793,3479,3305,Tag0,unknown
1545004084944,0,74,1.6259765625E-5,37,51,45,811676,46758,71476,16753042,26023,13793,3479,3305,Tag0,unknown
1545004084945,0,66,1.4501953125E-5,37,51,45,811676,46758,71476,16753042,26023,13793,3479,3305,Tag0,unknown
