timestampMs,poorSignal,eegRawValue,eegRawValueVolts,attention,meditation,blinkStrength,delta,theta,alphaLow,alphaHigh,betaLow,betaHigh,gammaLow,gammaMid,tagEvent,location
1545011467392,0,27,5.9326171875000005E-6,66,48,35,23278,70278,12972,6402,16758396,17346,2294,6065,Tag0,unknown
1545011467405,0,99,2.1752929687500003E-5,66,48,35,23278,70278,12972,6402,16758396,17346,2294,6065,Tag0,unknown
1545011467406,0,-95,-2.08740234375E-5,66,48,35,23278,70278,12972,6402,16758396,17346,2294,6065,Tag0,unknown
1545011467406,0,-118,-2.5927734375E-5,66,48,35,23278,70278,12972,6402,16758396,17346,2294,6065,Tag0,unknown
1545011467406,0,76,1.669921875E-5,66,48,35,23278,70278,12972,6402,16758396,17346,2294,6065,Tag0,unknown
1545011467406,0,48,1.0546875E-5,66,48,35,23278,70278,12972,6402,16758396,17346,2294,6065,Tag0,unknown
1545011467406,0,85,1.86767578125E-5,66,48,35,23278,70278,12972,6402,16758396,17346,2294,6065,Tag0,unknown
1545011467407,0,-123,-2.70263671875E-5,66,48,35,23278,70278,12972,6402,16758396,17346,2294,6065,Tag0,unknown
1545011467407,0,124,2.724609375E-5,66,48,35,23278,70278,12972,6402,16758396,17346,2294,6065,Tag0,unknown
1545011467407,0,71,1.56005859375E-5,66,48,35,23278,70278,12972,6402,16758396,17346,2294,6065,Tag0,unknown
1545011467407,0,25,5.4931640625E-6,66,48,35,23278,70278,12972,6402,16758396,17346,2294,6065,Tag0,unknown
1545011467408,0,48,1.0546875E-5,66,48,35,23278,70278,12972,6402,16758396,17346,2294,6065,Tag0,unknown
1545011467408,0,98,2.1533203125E-5,66,48,35,23278,70278,12972,6402,16758396,17346,2294,6065,Tag0,unknown
1545011467408,0,96,2.109375E-5,66,48,35,23278,70278,12972,6402,16758396,17346,2294,6065,Tag0,unknown
1545011467408,0,36,7.91015625E-6,66,48,35,23278,70278,12972,6402,16758396,17346,2294,6065,Tag0,unknown
1545011467408,0,-265,-5.82275390625E-5,66,48,35,23278,70278,12972,6402,16758396,17346,2294,6065,Tag0,unknown
1545011467408,0,1,2.197265625E-7,66,48,35,23278,70278,12972,6402,16758396,17346,2294,6065,Tag0,unknown
1545011467408,0,51,1.1206054687499999E-5,66,48,35,23278,70278,12972,6402,16758396,17346,2294,6065,Tag0,unknown
1545011467409,0,64,1.40625E-5,66,48,35,23278,70278,12972,6402,16758396,17346,2294,6065,Tag0,unknown
1545011467409,0,4,8.7890625E-7,66,48,35,23278,70278,12972,6402,16758396,17346,2294,6065,Tag0,unknown
1545011467409,0,-305,-6.70166015625E-5,66,48,35,23278,70278,12972,6402,16758396,17346,2294,6065,Tag0,unknown
1545011467409,0,-285,-6.26220703125E-5,66,48,35,23278,70278,12972,6402,16758396,17346,2294,6065,Tag0,unknown
1545011467409,0,37,8.1298828125E-6,66,48,35,23278,70278,12972,6402,16758396,17346,2294,6065,Tag0,unknown
1545011467422,0,64,1.40625E-5,66,48,35,23278,70278,12972,6402,16758396,17346,2294,6065,Tag0,unknown
1545011467423,0,22,4.833984375E-6,66,48,35,23278,70278,12972,6402,16758396,17346,2294,6065,Tag0,unknown
1545011467423,0,-267,-5.86669921875E-5,66,48,35,23278,70278,12972,6402,16758396,17346,2294,6065,Tag0,unknown
1545011467423,0,20,4.39453125E-6,66,48,35,23278,70278,12972,6402,16758396,17346,2294,6065,Tag0,unknown
1545011467423,0,98,2.1533203125E-5,66,48,35,23278,70278,12972,6402,16758396,17346,2294,6065,Tag0,unknown
1545011467423,0,-128,-2.8125E-5,66,48,35,23278,70278,12972,6402,16758396,17346,2294,6065,Tag0,unknown
1545011467423,0,85,1.86767578125E-5,66,48,35,23278,70278,12972,6402,16758396,17346,2294,6065,Tag0,unknown
1545011467423,0,33,7.2509765625E-6,66,48,35,23278,70278,12972,6402,16758396,17346,2294,6065,Tag0,unknown
1545011467451,0,40,8.7890625E-6,66,48,35,23278,70278,12972,6402,16758396,17346,2294,6065,Tag0,unknown
1545011467451,0,120,2.63671875E-5,66,48,35,23278,70278,12972,6402,16758396,17346,2294,6065,Tag0,unknown
1545011467455,0,-79,-1.7358398437500003E-5,66,48,35,23278,70278,12972,6402,16758396,17346,2294,6065,Tag0,unknown
1545011467456,0,-115,-2.52685546875E-5,66,48,35,23278,70278,12972,6402,16758396,17346,2294,6065,Tag0,unknown
1545011467472,0,73,1.6040039062500002E-5,66,48,35,23278,70278,12972,6402,16758396,17346,2294,6065,Tag0,unknown
1545011467472,0,52,1.142578125E-5,66,48,35,23278,70278,12972,6402,16758396,17346,2294,6065,Tag0,unknown
1545011467472,0,96,2.109375E-5,66,48,35,23278,70278,12972,6402,16758396,17346,2294,6065,Tag0,unknown
1545011467472,0,-127,-2.79052734375E-5,66,48,35,23278,70278,12972,6402,16758396,17346,2294,6065,Tag0,unknown
1545011467473,0,91,1.99951171875E-5,66,48,35,23278,70278,12972,6402,16758396,17346,2294,6065,Tag0,unknown
1545011467473,0,27,5.9326171875000005E-6,66,48,35,23278,70278,12972,6402,16758396,17346,2294,6065,Tag0,unknown
1545011467473,0,2,4.39453125E-7,66,48,35,23278,70278,12972,6402,16758396,17346,2294,6065,Tag0,unknown
1545011467473,0,43,9.448242187500001E-6,66,48,35,23278,70278,12972,6402,16758396,17346,2294,6065,Tag0,unknown
1545011467473,0,101,2.2192382812500002E-5,66,48,35,23278,70278,12972,6402,16758396,17346,2294,6065,Tag0,unknown
1545011467473,0,89,1.95556640625E-5,66,48,35,23278,70278,12972,6402,16758396,17346,2294,6065,Tag0,unknown
1545011467473,0,18,3.955078125E-6,66,48,35,23278,70278,12972,6402,16758396,17346,2294,6065,Tag0,unknown
1545011467474,0,-282,-6.1962890625E-5,66,48,35,23278,70278,12972,6402,16758396,17346,2294,6065,Tag0,unknown
1545011467474,0,11,2.4169921875E-6,66,48,35,23278,70278,12972,6402,16758396,17346,2294,6065,Tag0,unknown
1545011467474,0,76,1.669921875E-5,66,48,35,23278,70278,12972,6402,16758396,17346,2294,6065,Tag0,unknown
1545011467474,0,67,1.4721679687500002E-5,66,48,35,23278,70278,12972,6402,16758396,17346,2294,6065,Tag0,unknown
1545011467474,0,4,8.7890625E-7,66,48,35,23278,70278,12972,6402,16758396,17346,2294,6065,Tag0,unknown
1545011467477,0,-280,-6.15234375E-5,66,48,35,23278,70278,12972,6402,16758396,17346,2294,6065,Tag0,unknown
1545011467477,0,12,2.63671875E-6,66,48,35,23278,70278,12972,6402,16758396,17346,2294,6065,Tag0,unknown
1545011467477,0,74,1.6259765625E-5,66,48,35,23278,70278,12972,6402,16758396,17346,2294,6065,Tag0,unknown
1545011467477,0,86,1.8896484375000003E-5,66,48,35,23278,70278,12972,6402,16758396,17346,2294,6065,Tag0,unknown
1545011467477,0,44,9.66796875E-6,66,48,35,23278,70278,12972,6402,16758396,17346,2294,6065,Tag0,unknown
1545011467477,0,20,4.39453125E-6,66,48,35,23278,70278,12972,6402,16758396,17346,2294,6065,Tag0,unknown
1545011467477,0,65,1.42822265625E-5,66,48,35,23278,70278,12972,6402,16758396,17346,2294,6065,Tag0,unknown
1545011467510,0,-120,-2.63671875E-5,66,48,35,23278,70278,12972,6402,16758396,17346,2294,6065,Tag0,unknown
1545011467522,0,-115,-2.52685546875E-5,66,48,35,23278,70278,12972,6402,16758396,17346,2294,6065,Tag0,unknown
1545011467522,0,83,1.82373046875E-5,66,48,35,23278,70278,12972,6402,16758396,17346,2294,6065,Tag0,unknown
1545011467522,0,29,6.3720703125E-6,66,48,35,23278,70278,12972,6402,16758396,17346,2294,6065,Tag0,unknown
1545011467523,0,39,8.5693359375E-6,66,48,35,23278,70278,12972,6402,16758396,17346,2294,6065,Tag0,unknown
1545011467523,0,91,1.99951171875E-5,66,48,35,23278,70278,12972,6402,16758396,17346,2294,6065,Tag0,unknown
1545011467525,0,100,2.197265625E-5,66,48,35,23278,70278,12972,6402,16758396,17346,2294,6065,Tag0,unknown
1545011467525,0,50,1.0986328125E-5,66,48,35,23278,70278,12972,6402,16758396,17346,2294,6065,Tag0,unknown
1545011467525,0,1,2.197265625E-7,66,48,35,23278,70278,12972,6402,16758396,17346,2294,6065,Tag0,unknown
1545011467525,0,13,2.8564453125E-6,66,48,35,23278,70278,12972,6402,16758396,17346,2294,6065,Tag0,unknown
1545011467525,0,75,1.64794921875E-5,66,48,35,23278,70278,12972,6402,16758396,17346,2294,6065,Tag0,unknown
1545011467526,0,90,1.9775390625E-5,66,48,35,23278,70278,12972,6402,16758396,17346,2294,6065,Tag0,unknown
1545011467526,0,43,9.448242187500001E-6,66,48,35,23278,70278,12972,6402,16758396,17346,2294,6065,Tag0,unknown
1545011467526,0,-264,-5.80078125E-5,66,48,35,23278,70278,12972,6402,16758396,17346,2294,6065,Tag0,unknown
1545011467526,0,-259,-5.69091796875E-5,66,48,35,23278,70278,12972,6402,16758396,17346,2294,6065,Tag0,unknown
1545011467526,0,53,1.1645507812500002E-5,66,48,35,23278,70278,12972,6402,16758396,17346,2294,6065,Tag0,unknown
1545011467526,0,77,1.69189453125E-5,66,48,35,23278,70278,12972,6402,16758396,17346,2294,6065,Tag0,unknown
1545011467526,0,39,8.5693359375E-6,66,48,35,23278,70278,12972,6402,16758396,17346,2294,6065,Tag0,unknown
1545011467527,0,-260,-5.712890625E-5,66,48,35,23278,70278,12972,6402,16758396,17346,2294,6065,Tag0,unknown
1545011467528,0,1,2.197265625E-7,66,48,35,23278,70278,12972,6402,16758396,17346,2294,6065,Tag0,unknown
1545011467528,0,64,1.40625E-5,66,48,35,23278,70278,12972,6402,16758396,17346,2294,6065,Tag0,unknown
1545011467528,0,92,2.021484375E-5,66,48,35,23278,70278,12972,6402,16758396,17346,2294,6065,Tag0,unknown
1545011467528,0,53,1.1645507812500002E-5,66,48,35,23278,70278,12972,6402,16758396,17346,2294,6065,Tag0,unknown
1545011467529,0,-274,-6.0205078124999997E-5,66,48,35,23278,70278,12972,6402,16758396,17346,2294,6065,Tag0,unknown
1545011467529,0,-305,-6.70166015625E-5,66,48,35,23278,70278,12972,6402,16758396,17346,2294,6065,Tag0,unknown
1545011467529,0,0,0.0,66,48,35,23278,70278,12972,6402,16758396,17346,2294,6065,Tag0,unknown
1545011467539,0,50,1.0986328125E-5,66,48,35,23278,70278,12972,6402,16758396,17346,2294,6065,Tag0,unknown
1545011467539,0,27,5.9326171875000005E-6,66,48,35,23278,70278,12972,6402,16758396,17346,2294,6065,Tag0,unknown
1545011467540,0,-275,-6.04248046875E-5,66,48,35,23278,70278,12972,6402,16758396,17346,2294,6065,Tag0,unknown
1545011467540,0,-268,-5.8886718750000006E-5,66,48,35,23278,70278,12972,6402,16758396,17346,2294,6065,Tag0,unknown
1545011467540,0,58,1.2744140625E-5,66,48,35,23278,70278,12972,6402,16758396,17346,2294,6065,Tag0,unknown
1545011467540,0,122,2.6806640625E-5,66,48,35,23278,70278,12972,6402,16758396,17346,2294,6065,Tag0,unknown
1545011467541,0,100,2.197265625E-5,66,48,35,23278,70278,12972,6402,16758396,17346,2294,6065,Tag0,unknown
1545011467541,0,34,7.4707031250000005E-6,66,48,35,23278,70278,12972,6402,16758396,17346,2294,6065,Tag0,unknown
1545011467570,0,1,2.197265625E-7,66,48,35,23278,70278,12972,6402,16758396,17346,2294,6065,Tag0,unknown
1545011467572,0,41,9.008789062499999E-6,66,48,35,23278,70278,12972,6402,16758396,17346,2294,6065,Tag0,unknown
1545011467590,0,105,2.30712890625E-5,66,48,35,23278,70278,12972,6402,16758396,17346,2294,6065,Tag0,unknown
1545011467591,0,112,2.4609375E-5,66,48,35,23278,70278,12972,6402,16758396,17346,2294,6065,Tag0,unknown
1545011467591,0,59,1.29638671875E-5,66,48,35,23278,70278,12972,6402,16758396,17346,2294,6065,Tag0,unknown
1545011467591,0,32,7.03125E-6,66,48,35,23278,70278,12972,6402,16758396,17346,2294,6065,Tag0,unknown
1545011467591,0,73,1.6040039062500002E-5,66,48,35,23278,70278,12972,6402,16758396,17346,2294,6065,Tag0,unknown
1545011467591,0,-124,-2.724609375E-5,66,48,35,23278,70278,12972,6402,16758396,17346,2294,6065,Tag0,unknown
1545011467591,0,124,2.724609375E-5,66,48,35,23278,70278,12972,6402,16758396,17346,2294,6065,Tag0,unknown
1545011467592,0,59,1.29638671875E-5,66,48,35,23278,70278,12972,6402,16758396,17346,2294,6065,Tag0,unknown
1545011467592,0,11,2.4169921875E-6,66,48,35,23278,70278,12972,6402,16758396,17346,2294,6065,Tag0,unknown
1545011467592,0,27,5.9326171875000005E-6,66,48,35,23278,70278,12972,6402,16758396,17346,2294,6065,Tag0,unknown
1545011467592,0,74,1.6259765625E-5,66,48,35,23278,70278,12972,6402,16758396,17346,2294,6065,Tag0,unknown
1545011467592,0,83,1.82373046875E-5,66,48,35,23278,70278,12972,6402,16758396,17346,2294,6065,Tag0,unknown
1545011467592,0,35,7.6904296875E-6,66,48,35,23278,70278,12972,6402,16758396,17346,2294,6065,Tag0,unknown
1545011467592,0,-266,-5.8447265625E-5,66,48,35,23278,70278,12972,6402,16758396,17346,2294,6065,Tag0,unknown
1545011467592,0,11,2.4169921875E-6,66,48,35,23278,70278,12972,6402,16758396,17346,2294,6065,Tag0,unknown
1545011467593,0,77,1.69189453125E-5,66,48,35,23278,70278,12972,6402,16758396,17346,2294,6065,Tag0,unknown
1545011467593,0,100,2.197265625E-5,66,48,35,23278,70278,12972,6402,16758396,17346,2294,6065,Tag0,unknown
1545011467593,0,54,1.1865234375000001E-5,66,48,35,23278,70278,12972,6402,16758396,17346,2294,6065,Tag0,unknown
1545011467593,0,5,1.0986328125E-6,66,48,35,23278,70278,12972,6402,16758396,17346,2294,6065,Tag0,unknown
1545011467593,0,17,3.7353515625000003E-6,66,48,35,23278,70278,12972,6402,16758396,17346,2294,6065,Tag0,unknown
1545011467593,0,82,1.8017578124999998E-5,66,48,35,23278,70278,12972,6402,16758396,17346,2294,6065,Tag0,unknown
1545011467593,0,102,2.2412109374999998E-5,66,48,35,23278,70278,12972,6402,16758396,17346,2294,6065,Tag0,unknown
1545011467594,0,71,1.56005859375E-5,66,48,35,23278,70278,12972,6402,16758396,17346,2294,6065,Tag0,unknown
1545011467605,0,32,7.03125E-6,66,48,35,23278,70278,12972,6402,16758396,17346,2294,6065,Tag0,unknown
1545011467606,0,28,6.15234375E-6,66,48,35,23278,70278,12972,6402,16758396,17346,2294,6065,Tag0,unknown
1545011467606,0,85,1.86767578125E-5,66,48,35,23278,70278,12972,6402,16758396,17346,2294,6065,Tag0,unknown
1545011467606,0,118,2.5927734375E-5,66,48,35,23278,70278,12972,6402,16758396,17346,2294,6065,Tag0,unknown
1545011467606,0,83,1.82373046875E-5,66,48,35,23278,70278,12972,6402,16758396,17346,2294,6065,Tag0,unknown
1545011467606,0,22,4.833984375E-6,66,48,35,23278,70278,12972,6402,16758396,17346,2294,6065,Tag0,unknown
1545011467630,0,18,3.955078125E-6,66,48,35,23278,70278,12972,6402,16758396,17346,2294,6065,Tag0,unknown
1545011467638,0,93,2.04345703125E-5,66,48,35,23278,70278,12972,6402,16758396,17346,2294,6065,Tag0,unknown
1545011467657,0,-93,-2.04345703125E-5,66,48,35,23278,70278,12972,6402,16758396,17346,2294,6065,Tag0,unknown
1545011467657,0,-117,-2.5708007812499998E-5,66,48,35,23278,70278,12972,6402,16758396,17346,2294,6065,Tag0,unknown
1545011467657,0,67,1.4721679687500002E-5,66,48,35,23278,70278,12972,6402,16758396,17346,2294,6065,Tag0,unknown
1545011467658,0,24,5.2734375E-6,66,48,35,23278,70278,12972,6402,16758396,17346,2294,6065,Tag0,unknown
1545011467658,0,54,1.1865234375000001E-5,66,48,35,23278,70278,12972,6402,16758396,17346,2294,6065,Tag0,unknown
1545011467658,0,99,2.1752929687500003E-5,66,48,35,23278,70278,12972,6402,16758396,17346,2294,6065,Tag0,unknown
1545011467658,0,83,1.82373046875E-5,66,48,35,23278,70278,12972,6402,16758396,17346,2294,6065,Tag0,unknown
1545011467658,0,21,4.614257812500001E-6,66,48,35,23278,70278,12972,6402,16758396,17346,2294,6065,Tag0,unknown
1545011467658,0,-267,-5.86669921875E-5,66,48,35,23278,70278,12972,6402,16758396,17346,2294,6065,Tag0,unknown
1545011467659,0,19,4.1748046875E-6,66,48,35,23278,70278,12972,6402,16758396,17346,2294,6065,Tag0,unknown
1545011467659,0,74,1.6259765625E-5,66,48,35,23278,70278,12972,6402,16758396,17346,2294,6065,Tag0,unknown
1545011467659,0,75,1.64794921875E-5,66,48,35,23278,70278,12972,6402,16758396,17346,2294,6065,Tag0,unknown
1545011467659,0,21,4.614257812500001E-6,66,48,35,23278,70278,12972,6402,16758396,17346,2294,6065,Tag0,unknown
1545011467659,0,-267,-5.86669921875E-5,66,48,35,23278,70278,12972,6402,16758396,17346,2294,6065,Tag0,unknown
1545011467659,0,20,4.39453125E-6,66,48,35,23278,70278,12972,6402,16758396,17346,2294,6065,Tag0,unknown
1545011467659,0,72,1.58203125E-5,66,48,35,23278,70278,12972,6402,16758396,17346,2294,6065,Tag0,unknown
1545011467660,0,70,1.5380859375E-5,66,48,35,23278,70278,12972,6402,16758396,17346,2294,6065,Tag0,unknown
1545011467660,0,16,3.515625E-6,66,48,35,23278,70278,12972,6402,16758396,17346,2294,6065,Tag0,unknown
1545011467660,0,-279,-6.13037109375E-5,66,48,35,23278,70278,12972,6402,16758396,17346,2294,6065,Tag0,unknown
1545011467660,0,3,6.591796875E-7,66,48,35,23278,70278,12972,6402,16758396,17346,2294,6065,Tag0,unknown
1545011467660,0,60,1.318359375E-5,66,48,35,23278,70278,12972,6402,16758396,17346,2294,6065,Tag0,unknown
1545011467660,0,61,1.34033203125E-5,66,48,35,23278,70278,12972,6402,16758396,17346,2294,6065,Tag0,unknown
1545011467660,0,4,8.7890625E-7,66,48,35,23278,70278,12972,6402,16758396,17346,2294,6065,Tag0,unknown
1545011467660,0,-285,-6.26220703125E-5,66,48,35,23278,70278,12972,6402,16758396,17346,2294,6065,Tag0,unknown
1545011467661,0,8,1.7578125E-6,66,48,35,23278,70278,12972,6402,16758396,17346,2294,6065,Tag0,unknown
1545011467661,0,87,1.91162109375E-5,66,48,35,23278,70278,12972,6402,16758396,17346,2294,6065,Tag0,unknown
1545011467661,0,102,2.2412109374999998E-5,66,48,35,23278,70278,12972,6402,16758396,17346,2294,6065,Tag0,unknown
1545011467661,0,49,1.07666015625E-5,66,48,35,23278,70278,12972,6402,16758396,17346,2294,6065,Tag0,unknown
1545011467691,0,-260,-5.712890625E-5,66,48,35,23278,70278,12972,6402,16758396,17346,2294,6065,Tag0,unknown
1545011467706,0,4,8.7890625E-7,66,48,35,23278,70278,12972,6402,16758396,17346,2294,6065,Tag0,unknown
1545011467706,0,60,1.318359375E-5,66,48,35,23278,70278,12972,6402,16758396,17346,2294,6065,Tag0,unknown
1545011467706,0,89,1.95556640625E-5,66,48,35,23278,70278,12972,6402,16758396,17346,2294,6065,Tag0,unknown
1545011467707,0,56,1.23046875E-5,66,48,35,23278,70278,12972,6402,16758396,17346,2294,6065,Tag0,unknown
1545011467707,0,8,1.7578125E-6,66,48,35,23278,70278,12972,6402,16758396,17346,2294,6065,Tag0,unknown
1545011467707,0,18,3.955078125E-6,66,48,35,23278,70278,12972,6402,16758396,17346,2294,6065,Tag0,unknown
1545011467707,0,76,1.669921875E-5,66,48,35,23278,70278,12972,6402,16758396,17346,2294,6065,Tag0,unknown
1545011467707,0,102,2.2412109374999998E-5,66,48,35,23278,70278,12972,6402,16758396,17346,2294,6065,Tag0,unknown
1545011467707,0,43,9.448242187500001E-6,66,48,35,23278,70278,12972,6402,16758396,17346,2294,6065,Tag0,unknown
1545011467707,0,-289,-6.35009765625E-5,66,48,35,23278,70278,12972,6402,16758396,17346,2294,6065,Tag0,unknown
1545011467708,0,-294,-6.4599609375E-5,66,48,35,23278,70278,12972,6402,16758396,17346,2294,6065,Tag0,unknown
1545011467708,0,26,5.712890625E-6,66,48,35,23278,70278,12972,6402,16758396,17346,2294,6065,Tag0,unknown
1545011467708,0,69,1.51611328125E-5,66,48,35,23278,70278,12972,6402,16758396,17346,2294,6065,Tag0,unknown
1545011467708,0,27,5.9326171875000005E-6,66,48,35,23278,70278,12972,6402,16758396,17346,2294,6065,Tag0,unknown
1545011467708,0,-294,-6.4599609375E-5,66,48,35,23278,70278,12972,6402,16758396,17346,2294,6065,Tag0,unknown
1545011467708,0,-298,-6.5478515625E-5,66,48,35,23278,70278,12972,6402,16758396,17346,2294,6065,Tag0,unknown
1545011467708,0,24,5.2734375E-6,66,48,35,23278,70278,12972,6402,16758396,17346,2294,6065,Tag0,unknown
1545011467709,0,77,1.69189453125E-5,66,48,35,23278,70278,12972,6402,16758396,17346,2294,6065,Tag0,unknown
1545011467709,0,51,1.1206054687499999E-5,66,48,35,23278,70278,12972,6402,16758396,17346,2294,6065,Tag0,unknown
1545011467709,0,-275,-6.04248046875E-5,66,48,35,23278,70278,12972,6402,16758396,17346,2294,6065,Tag0,unknown
1545011467709,0,-299,-6.56982421875E-5,66,48,35,23278,70278,12972,6402,16758396,17346,2294,6065,Tag0,unknown
1545011467711,0,8,1.7578125E-6,66,48,35,23278,70278,12972,6402,16758396,17346,2294,6065,Tag0,unknown
1545011467711,0,77,1.69189453125E-5,66,48,35,23278,70278,12972,6402,16758396,17346,2294,6065,Tag0,unknown
1545011467712,0,69,1.51611328125E-5,66,48,35,23278,70278,12972,6402,16758396,17346,2294,6065,Tag0,unknown
1545011467722,0,3,6.591796875E-7,66,48,35,23278,70278,12972,6402,16758396,17346,2294,6065,Tag0,unknown
1545011467722,0,-282,-6.1962890625E-5,66,48,35,23278,70278,12972,6402,16758396,17346,2294,6065,Tag0,unknown
1545011467722,0,18,3.955078125E-6,66,48,35,23278,70278,12972,6402,16758396,17346,2294,6065,Tag0,unknown
1545011467722,0,88,1.93359375E-5,66,48,35,23278,70278,12972,6402,16758396,17346,2294,6065,Tag0,unknown
1545011467722,0,84,1.8457031250000004E-5,66,48,35,23278,70278,12972,6402,16758396,17346,2294,6065,Tag0,unknown
1545011467723,0,12,2.63671875E-6,66,48,35,23278,70278,12972,6402,16758396,17346,2294,6065,Tag0,unknown
1545011467723,0,-279,-6.13037109375E-5,66,48,35,23278,70278,12972,6402,16758396,17346,2294,6065,Tag0,unknown
1545011467753,0,19,4.1748046875E-6,66,48,35,23278,70278,12972,6402,16758396,17346,2294,6065,Tag0,unknown
1545011467755,0,88,1.93359375E-5,66,48,35,23278,70278,12972,6402,16758396,17346,2294,6065,Tag0,unknown
1545011467772,0,89,1.95556640625E-5,66,48,35,23278,70278,12972,6402,16758396,17346,2294,6065,Tag0,unknown
1545011467775,0,41,9.008789062499999E-6,66,48,35,23278,70278,12972,6402,16758396,17346,2294,6065,Tag0,unknown
1545011467775,0,11,2.4169921875E-6,66,48,35,23278,70278,12972,6402,16758396,17346,2294,6065,Tag0,unknown
1545011467775,0,49,1.07666015625E-5,66,48,35,23278,70278,12972,6402,16758396,17346,2294,6065,Tag0,unknown
1545011467775,0,117,2.5708007812499998E-5,66,48,35,23278,70278,12972,6402,16758396,17346,2294,6065,Tag0,unknown
1545011467775,0,123,2.70263671875E-5,66,48,35,23278,70278,12972,6402,16758396,17346,2294,6065,Tag0,unknown
1545011467776,0,60,1.318359375E-5,66,48,35,23278,70278,12972,6402,16758396,17346,2294,6065,Tag0,unknown
1545011467776,0,16,3.515625E-6,66,48,35,23278,70278,12972,6402,16758396,17346,2294,6065,Tag0,unknown
1545011467776,0,27,5.9326171875000005E-6,66,48,35,23278,70278,12972,6402,16758396,17346,2294,6065,Tag0,unknown
1545011467777,0,76,1.669921875E-5,66,48,35,23278,70278,12972,6402,16758396,17346,2294,6065,Tag0,unknown
1545011467777,0,92,2.021484375E-5,66,48,35,23278,70278,12972,6402,16758396,17346,2294,6065,Tag0,unknown
1545011467777,0,52,1.142578125E-5,66,48,35,23278,70278,12972,6402,16758396,17346,2294,6065,Tag0,unknown
1545011467777,0,8,1.7578125E-6,66,48,35,23278,70278,12972,6402,16758396,17346,2294,6065,Tag0,unknown
1545011467777,0,20,4.39453125E-6,66,48,35,23278,70278,12972,6402,16758396,17346,2294,6065,Tag0,unknown
1545011467777,0,72,1.58203125E-5,66,48,35,23278,70278,12972,6402,16758396,17346,2294,6065,Tag0,unknown
1545011467778,0,80,1.7578125E-5,66,48,35,23278,70278,12972,6402,16758396,17346,2294,6065,Tag0,unknown
1545011467778,0,33,7.2509765625E-6,66,48,35,23278,70278,12972,6402,16758396,17346,2294,6065,Tag0,unknown
1545011467778,0,-268,-5.8886718750000006E-5,66,48,35,23278,70278,12972,6402,16758396,17346,2294,6065,Tag0,unknown
1545011467778,0,-264,-5.80078125E-5,66,48,35,23278,70278,12972,6402,16758396,17346,2294,6065,Tag0,unknown
1545011467778,0,52,1.142578125E-5,66,48,35,23278,70278,12972,6402,16758396,17346,2294,6065,Tag0,unknown
1545011467778,0,99,2.1752929687500003E-5,66,48,35,23278,70278,12972,6402,16758396,17346,2294,6065,Tag0,unknown
1545011467779,0,76,1.669921875E-5,66,48,35,23278,70278,12972,6402,16758396,17346,2294,6065,Tag0,unknown
1545011467779,0,28,6.15234375E-6,66,48,35,23278,70278,12972,6402,16758396,17346,2294,6065,Tag0,unknown
1545011467779,0,27,5.9326171875000005E-6,66,48,35,23278,70278,12972,6402,16758396,17346,2294,6065,Tag0,unknown
1545011467779,0,90,1.9775390625E-5,66,48,35,23278,70278,12972,6402,16758396,17346,2294,6065,Tag0,unknown
1545011467779,0,-123,-2.70263671875E-5,66,48,35,23278,70278,12972,6402,16758396,17346,2294,6065,Tag0,unknown
1545011467789,0,108,2.3730468750000002E-5,66,48,35,23278,70278,12972,6402,16758396,17346,2294,6065,Tag0,unknown
1545011467789,0,65,1.42822265625E-5,66,48,35,23278,70278,12972,6402,16758396,17346,2294,6065,Tag0,unknown
1545011467816,0,55,1.20849609375E-5,66,48,35,23278,70278,12972,6402,16758396,17346,2294,6065,Tag0,unknown
1545011467816,0,103,2.26318359375E-5,66,48,35,23278,70278,12972,6402,16758396,17346,2294,6065,Tag0,unknown
1545011467817,0,-106,-2.3291015625000003E-5,66,48,35,23278,70278,12972,6402,16758396,17346,2294,6065,Tag0,unknown
1545011467817,0,-119,-2.6147460937500004E-5,66,48,35,23278,70278,12972,6402,16758396,17346,2294,6065,Tag0,unknown
1545011467822,0,85,1.86767578125E-5,66,48,35,23278,70278,12972,6402,16758396,17346,2294,6065,Tag0,unknown
1545011467822,0,55,1.20849609375E-5,66,48,35,23278,70278,12972,6402,16758396,17346,2294,6065,Tag0,unknown
1545011467822,0,84,1.8457031250000004E-5,66,48,35,23278,70278,12972,6402,16758396,17346,2294,6065,Tag0,unknown
1545011467823,0,-123,-2.70263671875E-5,66,48,35,23278,70278,12972,6402,16758396,17346,2294,6065,Tag0,unknown
1545011467823,0,123,2.70263671875E-5,66,48,35,23278,70278,12972,6402,16758396,17346,2294,6065,Tag0,unknown
1545011467823,0,59,1.29638671875E-5,66,48,35,23278,70278,12972,6402,16758396,17346,2294,6065,Tag0,unknown
1545011467823,0,11,2.4169921875E-6,66,48,35,23278,70278,12972,6402,16758396,17346,2294,6065,Tag0,unknown
1545011467823,0,27,5.9326171875000005E-6,66,48,35,23278,70278,12972,6402,16758396,17346,2294,6065,Tag0,unknown
1545011467823,0,76,1.669921875E-5,66,48,35,23278,70278,12972,6402,16758396,17346,2294,6065,Tag0,unknown
1545011467824,0,80,1.7578125E-5,66,48,35,23278,70278,12972,6402,16758396,17346,2294,6065,Tag0,unknown
1545011467824,0,23,5.0537109375E-6,66,48,35,23278,70278,12972,6402,16758396,17346,2294,6065,Tag0,unknown
1545011467824,0,-262,-5.7568359375E-5,66,48,35,23278,70278,12972,6402,16758396,17346,2294,6065,Tag0,unknown
1545011467824,0,35,7.6904296875E-6,66,48,35,23278,70278,12972,6402,16758396,17346,2294,6065,Tag0,unknown
1545011467824,0,89,1.95556640625E-5,66,48,35,23278,70278,12972,6402,16758396,17346,2294,6065,Tag0,unknown
1545011467825,0,72,1.58203125E-5,66,48,35,23278,70278,12972,6402,16758396,17346,2294,6065,Tag0,unknown
1545011467825,0,1,2.197265625E-7,66,48,35,23278,70278,12972,6402,16758396,17346,2294,6065,Tag0,unknown
1545011467825,0,-322,-7.0751953125E-5,66,48,35,23278,70278,12972,6402,16758396,17346,2294,6065,Tag0,unknown
1545011467838,0,-331,-7.272949218750001E-5,66,48,35,23278,70278,12972,6402,16758396,17346,2294,6065,Tag0,unknown
1545011467839,0,-266,-5.8447265625E-5,66,48,35,23278,70278,12972,6402,16758396,17346,2294,6065,Tag0,unknown
1545011467841,0,70,1.5380859375E-5,66,48,35,23278,70278,12972,6402,16758396,17346,2294,6065,Tag0,unknown
1545011467841,0,87,1.91162109375E-5,66,48,35,23278,70278,12972,6402,16758396,17346,2294,6065,Tag0,unknown
1545011467841,0,45,9.8876953125E-6,66,48,35,23278,70278,12972,6402,16758396,17346,2294,6065,Tag0,unknown
1545011467841,0,28,6.15234375E-6,66,48,35,23278,70278,12972,6402,16758396,17346,2294,6065,Tag0,unknown
1545011467841,0,83,1.82373046875E-5,66,48,35,23278,70278,12972,6402,16758396,17346,2294,6065,Tag0,unknown
1545011467842,0,-126,-2.7685546875E-5,66,48,35,23278,70278,12972,6402,16758396,17346,2294,6065,Tag0,unknown
1545011467842,0,106,2.3291015625000003E-5,66,48,35,23278,70278,12972,6402,16758396,17346,2294,6065,Tag0,unknown
1545011467842,0,58,1.2744140625E-5,66,48,35,23278,70278,12972,6402,16758396,17346,2294,6065,Tag0,unknown
1545011467871,0,48,1.0546875E-5,66,48,35,23278,70278,12972,6402,16758396,17346,2294,6065,Tag0,unknown
1545011467889,0,74,1.6259765625E-5,66,48,35,23278,70278,12972,6402,16758396,17346,2294,6065,Tag0,unknown
1545011467891,0,86,1.8896484375000003E-5,66,48,35,23278,70278,12972,6402,16758396,17346,2294,6065,Tag0,unknown
1545011467891,0,35,7.6904296875E-6,66,48,35,23278,70278,12972,6402,16758396,17346,2294,6065,Tag0,unknown
1545011467892,0,-286,-6.2841796875E-5,66,48,35,23278,70278,12972,6402,16758396,17346,2294,6065,Tag0,unknown
1545011467892,0,-310,-6.8115234375E-5,66,48,35,23278,70278,12972,6402,16758396,17346,2294,6065,Tag0,unknown
1545011467892,0,2,4.39453125E-7,66,48,35,23278,70278,12972,6402,16758396,17346,2294,6065,Tag0,unknown
1545011467892,0,64,1.40625E-5,66,48,35,23278,70278,12972,6402,16758396,17346,2294,6065,Tag0,unknown
1545011467892,0,56,1.23046875E-5,66,48,35,23278,70278,12972,6402,16758396,17346,2294,6065,Tag0,unknown
1545011467892,0,9,1.9775390625E-6,66,48,35,23278,70278,12972,6402,16758396,17346,2294,6065,Tag0,unknown
1545011467893,0,-268,-5.8886718750000006E-5,66,48,35,23278,70278,12972,6402,16758396,17346,2294,6065,Tag0,unknown
1545011467893,0,-258,-5.6689453125000004E-5,66,48,35,23278,70278,12972,6402,16758396,17346,2294,6065,Tag0,unknown
1545011467893,0,11,2.4169921875E-6,66,48,35,23278,70278,12972,6402,16758396,17346,2294,6065,Tag0,unknown
1545011467893,0,-267,-5.86669921875E-5,66,48,35,23278,70278,12972,6402,16758396,17346,2294,6065,Tag0,unknown
1545011467893,0,-309,-6.78955078125E-5,66,48,35,23278,70278,12972,6402,16758396,17346,2294,6065,Tag0,unknown
1545011467894,0,-316,-6.943359375000001E-5,66,48,35,23278,70278,12972,6402,16758396,17346,2294,6065,Tag0,unknown
1545011467894,0,-275,-6.04248046875E-5,66,48,35,23278,70278,12972,6402,16758396,17346,2294,6065,Tag0,unknown
1545011467894,0,22,4.833984375E-6,66,48,35,23278,70278,12972,6402,16758396,17346,2294,6065,Tag0,unknown
1545011467894,0,2,4.39453125E-7,66,48,35,23278,70278,12972,6402,16758396,17346,2294,6065,Tag0,unknown
1545011467895,0,-321,-7.053222656250001E-5,66,48,35,23278,70278,12972,6402,16758396,17346,2294,6065,Tag0,unknown
1545011467895,0,-363,-7.97607421875E-5,66,48,35,23278,70278,12972,6402,16758396,17346,2294,6065,Tag0,unknown
1545011467895,0,-332,-7.294921875E-5,66,48,35,23278,70278,12972,6402,16758396,17346,2294,6065,Tag0,unknown
1545011467895,0,-266,-5.8447265625E-5,66,48,35,23278,70278,12972,6402,16758396,17346,2294,6065,Tag0,unknown
1545011467895,0,-257,-5.64697265625E-5,66,48,35,23278,70278,12972,6402,16758396,17346,2294,6065,Tag0,unknown
1545011467895,0,-314,-6.8994140625E-5,66,48,35,23278,70278,12972,6402,16758396,17346,2294,6065,Tag0,unknown
1545011467896,0,-347,-7.62451171875E-5,66,48,35,23278,70278,12972,6402,16758396,17346,2294,6065,Tag0,unknown
1545011467906,0,-296,-6.50390625E-5,66,48,35,23278,70278,12972,6402,16758396,17346,2294,6065,Tag0,unknown
1545011467906,0,37,8.1298828125E-6,66,48,35,23278,70278,12972,6402,16758396,17346,2294,6065,Tag0,unknown
1545011467907,0,33,7.2509765625E-6,66,48,35,23278,70278,12972,6402,16758396,17346,2294,6065,Tag0,unknown
1545011467907,0,-305,-6.70166015625E-5,66,48,35,23278,70278,12972,6402,16758396,17346,2294,6065,Tag0,unknown
1545011467907,0,-363,-7.97607421875E-5,66,48,35,23278,70278,12972,6402,16758396,17346,2294,6065,Tag0,unknown
1545011467948,0,-337,-7.40478515625E-5,66,48,35,23278,70278,12972,6402,16758396,17346,2294,6065,Tag0,unknown
1545011467948,0,0,0.0,66,48,35,23278,70278,12972,6402,16758396,17346,2294,6065,Tag0,unknown
1545011467948,0,32,7.03125E-6,66,48,35,23278,70278,12972,6402,16758396,17346,2294,6065,Tag0,unknown
1545011467948,0,-273,-5.998535156250001E-5,66,48,35,23278,70278,12972,6402,16758396,17346,2294,6065,Tag0,unknown
1545011467949,0,-337,-7.40478515625E-5,66,48,35,23278,70278,12972,6402,16758396,17346,2294,6065,Tag0,unknown
1545011467949,0,-354,-7.778320312500001E-5,66,48,35,23278,70278,12972,6402,16758396,17346,2294,6065,Tag0,unknown
1545011467949,0,-317,-6.96533203125E-5,66,48,35,23278,70278,12972,6402,16758396,17346,2294,6065,Tag0,unknown
1545011467949,0,-312,-6.85546875E-5,66,48,35,23278,70278,12972,6402,16758396,17346,2294,6065,Tag0,unknown
1545011467949,0,-371,-8.151855468750001E-5,66,48,35,23278,70278,12972,6402,16758396,17346,2294,6065,Tag0,unknown
1545011467950,0,-180,-3.955078125E-5,66,48,35,23278,70278,12972,6402,16758396,17346,2294,6065,Tag0,unknown
1545011467950,0,-171,-3.75732421875E-5,66,48,35,23278,70278,12972,6402,16758396,17346,2294,6065,Tag0,unknown
1545011467950,0,-356,-7.822265625E-5,66,48,35,23278,70278,12972,6402,16758396,17346,2294,6065,Tag0,unknown
1545011467950,0,-317,-6.96533203125E-5,66,48,35,23278,70278,12972,6402,16758396,17346,2294,6065,Tag0,unknown
1545011467950,0,-372,-8.173828125E-5,66,48,35,23278,70278,12972,6402,16758396,17346,2294,6065,Tag0,unknown
1545011467951,0,-188,-4.1308593750000004E-5,66,48,35,23278,70278,12972,6402,16758396,17346,2294,6065,Tag0,unknown
1545011467951,0,-198,-4.3505859375000006E-5,66,48,35,23278,70278,12972,6402,16758396,17346,2294,6065,Tag0,unknown
1545011467951,0,-131,-2.87841796875E-5,66,48,35,23278,70278,12972,6402,16758396,17346,2294,6065,Tag0,unknown
1545011467951,0,-332,-7.294921875E-5,66,48,35,23278,70278,12972,6402,16758396,17346,2294,6065,Tag0,unknown
1545011467951,0,-349,-7.668457031250001E-5,66,48,35,23278,70278,12972,6402,16758396,17346,2294,6065,Tag0,unknown
1545011467952,0,-154,-3.3837890625E-5,66,48,35,23278,70278,12972,6402,16758396,17346,2294,6065,Tag0,unknown
1545011467952,0,-193,-4.2407226562500005E-5,66,48,35,23278,70278,12972,6402,16758396,17346,2294,6065,Tag0,unknown
1545011467952,0,-170,-3.7353515625E-5,66,48,35,23278,70278,12972,6402,16758396,17346,2294,6065,Tag0,unknown
1545011467952,0,-134,-2.9443359375000003E-5,66,48,35,23278,70278,12972,6402,16758396,17346,2294,6065,Tag0,unknown
1545011467952,0,-137,-3.0102539062499998E-5,66,48,35,23278,70278,12972,6402,16758396,17346,2294,6065,Tag0,unknown
1545011467957,0,-174,-3.8232421875E-5,66,48,35,23278,70278,12972,6402,16758396,17346,2294,6065,Tag0,unknown
1545011467957,0,-171,-3.75732421875E-5,66,48,35,23278,70278,12972,6402,16758396,17346,2294,6065,Tag0,unknown
1545011467957,0,-359,-7.88818359375E-5,66,48,35,23278,70278,12972,6402,16758396,17346,2294,6065,Tag0,unknown
1545011467957,0,-309,-6.78955078125E-5,66,48,35,23278,70278,12972,6402,16758396,17346,2294,6065,Tag0,unknown
1545011467958,0,-343,-7.53662109375E-5,66,48,35,23278,70278,12972,6402,16758396,17346,2294,6065,Tag0,unknown
1545011467973,0,-151,-3.31787109375E-5,66,48,35,23278,70278,12972,6402,16758396,17346,2294,6065,Tag0,unknown
1545011468014,0,-166,-3.6474609375E-5,66,48,35,23278,70278,12972,6402,16758396,17346,2294,6065,Tag0,unknown
1545011468023,0,-364,-7.998046875E-5,66,48,35,23278,70278,12972,6402,16758396,17346,2294,6065,Tag0,unknown
1545011468023,0,-294,-6.4599609375E-5,66,48,35,23278,70278,12972,6402,16758396,17346,2294,6065,Tag0,unknown
1545011468086,0,-296,-6.50390625E-5,66,48,35,23278,70278,12972,6402,16758396,17346,2294,6065,Tag0,unknown
1545011468110,0,-354,-7.778320312500001E-5,66,48,35,23278,70278,12972,6402,16758396,17346,2294,6065,Tag0,unknown
1545011468157,0,-136,-2.9882812500000002E-5,66,48,35,23278,70278,12972,6402,16758396,17346,2294,6065,Tag0,unknown
1545011468157,0,-361,-7.93212890625E-5,66,48,35,23278,70278,12972,6402,16758396,17346,2294,6065,Tag0,unknown
1545011468158,0,-310,-6.8115234375E-5,66,48,35,23278,70278,12972,6402,16758396,17346,2294,6065,Tag0,unknown
1545011468175,0,-313,-6.87744140625E-5,66,48,35,23278,70278,12972,6402,16758396,17346,2294,6065,Tag0,unknown
1545011468176,0,-365,-8.02001953125E-5,66,48,35,23278,70278,12972,6402,16758396,17346,2294,6065,Tag0,unknown
1545011468177,0,-148,-3.251953125E-5,66,48,35,23278,70278,12972,6402,16758396,17346,2294,6065,Tag0,unknown
1545011468177,0,-375,-8.23974609375E-5,66,48,35,23278,70278,12972,6402,16758396,17346,2294,6065,Tag0,unknown
1545011468177,0,-324,-7.119140625E-5,66,48,35,23278,70278,12972,6402,16758396,17346,2294,6065,Tag0,unknown
1545011468177,0,-322,-7.0751953125E-5,66,48,35,23278,70278,12972,6402,16758396,17346,2294,6065,Tag0,unknown
1545011468177,0,-378,-8.3056640625E-5,66,48,35,23278,70278,12972,6402,16758396,17346,2294,6065,Tag0,unknown
1545011468178,0,-169,-3.7133789062499996E-5,66,48,35,23278,70278,12972,6402,16758396,17346,2294,6065,Tag0,unknown
1545011468178,0,-135,-2.96630859375E-5,66,48,35,23278,70278,12972,6402,16758396,17346,2294,6065,Tag0,unknown
1545011468178,0,-312,-6.85546875E-5,66,48,35,23278,70278,12972,6402,16758396,17346,2294,6065,Tag0,unknown
1545011468178,0,-294,-6.4599609375E-5,66,48,35,23278,70278,12972,6402,16758396,17346,2294,6065,Tag0,unknown
1545011468186,0,-343,-7.53662109375E-5,74,41,35,21887,16760400,8250,12520,16756636,9159,1778,5621,Tag0,unknown
1545011468186,0,-129,-2.8344726562500002E-5,74,41,35,21887,16760400,8250,12520,16756636,9159,1778,5621,Tag0,unknown
1545011468188,0,-361,-7.93212890625E-5,74,41,35,21887,16760400,8250,12520,16756636,9159,1778,5621,Tag0,unknown
1545011468188,0,-296,-6.50390625E-5,74,41,35,21887,16760400,8250,12520,16756636,9159,1778,5621,Tag0,unknown
1545011468188,0,-273,-5.998535156250001E-5,74,41,35,21887,16760400,8250,12520,16756636,9159,1778,5621,Tag0,unknown
1545011468188,0,-324,-7.119140625E-5,74,41,35,21887,16760400,8250,12520,16756636,9159,1778,5621,Tag0,unknown
1545011468188,0,-382,-8.3935546875E-5,74,41,35,21887,16760400,8250,12520,16756636,9159,1778,5621,Tag0,unknown
1545011468189,0,-371,-8.151855468750001E-5,74,41,35,21887,16760400,8250,12520,16756636,9159,1778,5621,Tag0,unknown
1545011468189,0,-290,-6.3720703125E-5,74,41,35,21887,16760400,8250,12520,16756636,9159,1778,5621,Tag0,unknown
1545011468189,0,20,4.39453125E-6,74,41,35,21887,16760400,8250,12520,16756636,9159,1778,5621,Tag0,unknown
1545011468189,0,-263,-5.7788085937500005E-5,74,41,35,21887,16760400,8250,12520,16756636,9159,1778,5621,Tag0,unknown
1545011468189,0,-323,-7.09716796875E-5,74,41,35,21887,16760400,8250,12520,16756636,9159,1778,5621,Tag0,unknown
1545011468190,0,-340,-7.470703125E-5,74,41,35,21887,16760400,8250,12520,16756636,9159,1778,5621,Tag0,unknown
1545011468190,0,-289,-6.35009765625E-5,74,41,35,21887,16760400,8250,12520,16756636,9159,1778,5621,Tag0,unknown
1545011468194,0,19,4.1748046875E-6,74,41,35,21887,16760400,8250,12520,16756636,9159,1778,5621,Tag0,unknown
1545011468209,0,4,8.7890625E-7,74,41,35,21887,16760400,8250,12520,16756636,9159,1778,5621,Tag0,unknown
1545011468210,0,-282,-6.1962890625E-5,74,41,35,21887,16760400,8250,12520,16756636,9159,1778,5621,Tag0,unknown
1545011468210,0,-278,-6.108398437500001E-5,74,41,35,21887,16760400,8250,12520,16756636,9159,1778,5621,Tag0,unknown
1545011468211,0,22,4.833984375E-6,74,41,35,21887,16760400,8250,12520,16756636,9159,1778,5621,Tag0,unknown
1545011468211,0,56,1.23046875E-5,74,41,35,21887,16760400,8250,12520,16756636,9159,1778,5621,Tag0,unknown
1545011468212,0,34,7.4707031250000005E-6,74,41,35,21887,16760400,8250,12520,16756636,9159,1778,5621,Tag0,unknown
1545011468212,0,-267,-5.86669921875E-5,74,41,35,21887,16760400,8250,12520,16756636,9159,1778,5621,Tag0,unknown
1545011468212,0,-266,-5.8447265625E-5,74,41,35,21887,16760400,8250,12520,16756636,9159,1778,5621,Tag0,unknown
1545011468212,0,56,1.23046875E-5,74,41,35,21887,16760400,8250,12520,16756636,9159,1778,5621,Tag0,unknown
1545011468212,0,122,2.6806640625E-5,74,41,35,21887,16760400,8250,12520,16756636,9159,1778,5621,Tag0,unknown
1545011468212,0,114,2.5048828125000003E-5,74,41,35,21887,16760400,8250,12520,16756636,9159,1778,5621,Tag0,unknown
1545011468213,0,51,1.1206054687499999E-5,74,41,35,21887,16760400,8250,12520,16756636,9159,1778,5621,Tag0,unknown
1545011468213,0,10,2.197265625E-6,74,41,35,21887,16760400,8250,12520,16756636,9159,1778,5621,Tag0,unknown
1545011468213,0,43,9.448242187500001E-6,74,41,35,21887,16760400,8250,12520,16756636,9159,1778,5621,Tag0,unknown
1545011468213,0,104,2.28515625E-5,74,41,35,21887,16760400,8250,12520,16756636,9159,1778,5621,Tag0,unknown
1545011468213,0,112,2.4609375E-5,74,41,35,21887,16760400,8250,12520,16756636,9159,1778,5621,Tag0,unknown
1545011468213,0,57,1.2524414062500001E-5,74,41,35,21887,16760400,8250,12520,16756636,9159,1778,5621,Tag0,unknown
1545011468213,0,26,5.712890625E-6,74,41,35,21887,16760400,8250,12520,16756636,9159,1778,5621,Tag0,unknown
1545011468214,0,64,1.40625E-5,74,41,35,21887,16760400,8250,12520,16756636,9159,1778,5621,Tag0,unknown
1545011468214,0,117,2.5708007812499998E-5,74,41,35,21887,16760400,8250,12520,16756636,9159,1778,5621,Tag0,unknown
1545011468214,0,107,2.35107421875E-5,74,41,35,21887,16760400,8250,12520,16756636,9159,1778,5621,Tag0,unknown
1545011468214,0,49,1.07666015625E-5,74,41,35,21887,16760400,8250,12520,16756636,9159,1778,5621,Tag0,unknown
1545011468214,0,12,2.63671875E-6,74,41,35,21887,16760400,8250,12520,16756636,9159,1778,5621,Tag0,unknown
1545011468214,0,44,9.66796875E-6,74,41,35,21887,16760400,8250,12520,16756636,9159,1778,5621,Tag0,unknown
1545011468215,0,109,2.39501953125E-5,74,41,35,21887,16760400,8250,12520,16756636,9159,1778,5621,Tag0,unknown
1545011468215,0,120,2.63671875E-5,74,41,35,21887,16760400,8250,12520,16756636,9159,1778,5621,Tag0,unknown
1545011468215,0,64,1.40625E-5,74,41,35,21887,16760400,8250,12520,16756636,9159,1778,5621,Tag0,unknown
1545011468215,0,8,1.7578125E-6,74,41,35,21887,16760400,8250,12520,16756636,9159,1778,5621,Tag0,unknown
1545011468215,0,17,3.7353515625000003E-6,74,41,35,21887,16760400,8250,12520,16756636,9159,1778,5621,Tag0,unknown
1545011468215,0,72,1.58203125E-5,74,41,35,21887,16760400,8250,12520,16756636,9159,1778,5621,Tag0,unknown
1545011468216,0,102,2.2412109374999998E-5,74,41,35,21887,16760400,8250,12520,16756636,9159,1778,5621,Tag0,unknown
1545011468216,0,69,1.51611328125E-5,74,41,35,21887,16760400,8250,12520,16756636,9159,1778,5621,Tag0,unknown
1545011468216,0,28,6.15234375E-6,74,41,35,21887,16760400,8250,12520,16756636,9159,1778,5621,Tag0,unknown
1545011468216,0,42,9.228515625000002E-6,74,41,35,21887,16760400,8250,12520,16756636,9159,1778,5621,Tag0,unknown
1545011468216,0,104,2.28515625E-5,74,41,35,21887,16760400,8250,12520,16756636,9159,1778,5621,Tag0,unknown
1545011468217,0,-109,-2.39501953125E-5,74,41,35,21887,16760400,8250,12520,16756636,9159,1778,5621,Tag0,unknown
1545011468217,0,123,2.70263671875E-5,74,41,35,21887,16760400,8250,12520,16756636,9159,1778,5621,Tag0,unknown
1545011468217,0,80,1.7578125E-5,74,41,35,21887,16760400,8250,12520,16756636,9159,1778,5621,Tag0,unknown
1545011468217,0,75,1.64794921875E-5,74,41,35,21887,16760400,8250,12520,16756636,9159,1778,5621,Tag0,unknown
1545011468217,0,125,2.74658203125E-5,74,41,35,21887,16760400,8250,12520,16756636,9159,1778,5621,Tag0,unknown
1545011468218,0,-77,-1.69189453125E-5,74,41,35,21887,16760400,8250,12520,16756636,9159,1778,5621,Tag0,unknown
1545011468218,0,-83,-1.82373046875E-5,74,41,35,21887,16760400,8250,12520,16756636,9159,1778,5621,Tag0,unknown
1545011468219,0,-122,-2.6806640625E-5,74,41,35,21887,16760400,8250,12520,16756636,9159,1778,5621,Tag0,unknown
1545011468219,0,-125,-2.74658203125E-5,74,41,35,21887,16760400,8250,12520,16756636,9159,1778,5621,Tag0,unknown
1545011468219,0,-67,-1.4721679687500002E-5,74,41,35,21887,16760400,8250,12520,16756636,9159,1778,5621,Tag0,unknown
1545011468219,0,-7,-1.5380859375E-6,74,41,35,21887,16760400,8250,12520,16756636,9159,1778,5621,Tag0,unknown
1545011468219,0,-23,-5.0537109375E-6,74,41,35,21887,16760400,8250,12520,16756636,9159,1778,5621,Tag0,unknown
1545011468219,0,-80,-1.7578125E-5,74,41,35,21887,16760400,8250,12520,16756636,9159,1778,5621,Tag0,unknown
1545011468220,0,-100,-2.197265625E-5,74,41,35,21887,16760400,8250,12520,16756636,9159,1778,5621,Tag0,unknown
1545011468221,0,-45,-9.8876953125E-6,74,41,35,21887,16760400,8250,12520,16756636,9159,1778,5621,Tag0,unknown
1545011468221,0,266,5.8447265625E-5,74,41,35,21887,16760400,8250,12520,16756636,9159,1778,5621,Tag0,unknown
1545011468221,0,-11,-2.4169921875E-6,74,41,35,21887,16760400,8250,12520,16756636,9159,1778,5621,Tag0,unknown
1545011468222,0,-72,-1.58203125E-5,74,41,40,21887,16760400,8250,12520,16756636,9159,1778,5621,Tag0,unknown
1545011468222,0,-92,-2.021484375E-5,74,41,40,21887,16760400,8250,12520,16756636,9159,1778,5621,Tag0,unknown
1545011468223,0,-40,-8.7890625E-6,74,41,40,21887,16760400,8250,12520,16756636,9159,1778,5621,Tag0,unknown
1545011468223,0,273,5.998535156250001E-5,74,41,40,21887,16760400,8250,12520,16756636,9159,1778,5621,Tag0,unknown
1545011468223,0,257,5.64697265625E-5,74,41,40,21887,16760400,8250,12520,16756636,9159,1778,5621,Tag0,unknown
1545011468223,0,-67,-1.4721679687500002E-5,74,41,40,21887,16760400,8250,12520,16756636,9159,1778,5621,Tag0,unknown
1545011468223,0,-100,-2.197265625E-5,74,41,40,21887,16760400,8250,12520,16756636,9159,1778,5621,Tag0,unknown
1545011468224,0,-62,-1.3623046875E-5,74,41,40,21887,16760400,8250,12520,16756636,9159,1778,5621,Tag0,unknown
1545011468224,0,-7,-1.5380859375E-6,74,41,40,21887,16760400,8250,12520,16756636,9159,1778,5621,Tag0,unknown
1545011468224,0,-15,-3.2958984375E-6,74,41,40,21887,16760400,8250,12520,16756636,9159,1778,5621,Tag0,unknown
1545011468224,0,-77,-1.69189453125E-5,74,41,40,21887,16760400,8250,12520,16756636,9159,1778,5621,Tag0,unknown
1545011468224,0,-127,-2.79052734375E-5,74,41,40,21887,16760400,8250,12520,16756636,9159,1778,5621,Tag0,unknown
1545011468225,0,-107,-2.35107421875E-5,74,41,40,21887,16760400,8250,12520,16756636,9159,1778,5621,Tag0,unknown
1545011468225,0,-44,-9.66796875E-6,74,41,40,21887,16760400,8250,12520,16756636,9159,1778,5621,Tag0,unknown
1545011468225,0,-28,-6.15234375E-6,74,41,40,21887,16760400,8250,12520,16756636,9159,1778,5621,Tag0,unknown
1545011468225,0,-76,-1.669921875E-5,74,41,40,21887,16760400,8250,12520,16756636,9159,1778,5621,Tag0,unknown
1545011468225,0,-112,-2.4609375E-5,74,41,40,21887,16760400,8250,12520,16756636,9159,1778,5621,Tag0,unknown
1545011468226,0,-87,-1.91162109375E-5,74,41,40,21887,16760400,8250,12520,16756636,9159,1778,5621,Tag0,unknown
1545011468226,0,-16,-3.515625E-6,74,41,40,21887,16760400,8250,12520,16756636,9159,1778,5621,Tag0,unknown
1545011468226,0,264,5.80078125E-5,74,41,40,21887,16760400,8250,12520,16756636,9159,1778,5621,Tag0,unknown
1545011468226,0,-40,-8.7890625E-6,74,41,40,21887,16760400,8250,12520,16756636,9159,1778,5621,Tag0,unknown
1545011468227,0,-102,-2.2412109374999998E-5,74,41,40,21887,16760400,8250,12520,16756636,9159,1778,5621,Tag0,unknown
1545011468227,0,-106,-2.3291015625000003E-5,74,41,40,21887,16760400,8250,12520,16756636,9159,1778,5621,Tag0,unknown
1545011468227,0,-54,-1.1865234375000001E-5,74,41,40,21887,16760400,8250,12520,16756636,9159,1778,5621,Tag0,unknown
1545011468227,0,-25,-5.4931640625E-6,74,41,40,21887,16760400,8250,12520,16756636,9159,1778,5621,Tag0,unknown
1545011468228,0,-76,-1.669921875E-5,74,41,40,21887,16760400,8250,12520,16756636,9159,1778,5621,Tag0,unknown
1545011468228,0,115,2.52685546875E-5,74,41,40,21887,16760400,8250,12520,16756636,9159,1778,5621,Tag0,unknown
1545011468228,0,-128,-2.8125E-5,74,41,40,21887,16760400,8250,12520,16756636,9159,1778,5621,Tag0,unknown
1545011468228,0,-57,-1.2524414062500001E-5,74,41,40,21887,16760400,8250,12520,16756636,9159,1778,5621,Tag0,unknown
1545011468228,0,-26,-5.712890625E-6,74,41,40,21887,16760400,8250,12520,16756636,9159,1778,5621,Tag0,unknown
1545011468230,0,-76,-1.669921875E-5,74,41,40,21887,16760400,8250,12520,16756636,9159,1778,5621,Tag0,unknown
1545011468231,0,117,2.5708007812499998E-5,74,41,40,21887,16760400,8250,12520,16756636,9159,1778,5621,Tag0,unknown
1545011468231,0,119,2.6147460937500004E-5,74,41,40,21887,16760400,8250,12520,16756636,9159,1778,5621,Tag0,unknown
1545011468231,0,-75,-1.64794921875E-5,74,41,40,21887,16760400,8250,12520,16756636,9159,1778,5621,Tag0,unknown
1545011468231,0,-43,-9.448242187500001E-6,74,41,40,21887,16760400,8250,12520,16756636,9159,1778,5621,Tag0,unknown
1545011468232,0,-94,-2.0654296875000002E-5,74,41,40,21887,16760400,8250,12520,16756636,9159,1778,5621,Tag0,unknown
1545011468232,0,87,1.91162109375E-5,74,41,40,21887,16760400,8250,12520,16756636,9159,1778,5621,Tag0,unknown
1545011468232,0,73,1.6040039062500002E-5,74,41,40,21887,16760400,8250,12520,16756636,9159,1778,5621,Tag0,unknown
1545011468232,0,-118,-2.5927734375E-5,74,41,40,21887,16760400,8250,12520,16756636,9159,1778,5621,Tag0,unknown
1545011468232,0,-55,-1.20849609375E-5,74,41,40,21887,16760400,8250,12520,16756636,9159,1778,5621,Tag0,unknown
1545011468233,0,-76,-1.669921875E-5,74,41,40,21887,16760400,8250,12520,16756636,9159,1778,5621,Tag0,unknown
1545011468233,0,116,2.548828125E-5,74,41,40,21887,16760400,8250,12520,16756636,9159,1778,5621,Tag0,unknown
1545011468233,0,98,2.1533203125E-5,74,41,40,21887,16760400,8250,12520,16756636,9159,1778,5621,Tag0,unknown
1545011468233,0,-101,-2.2192382812500002E-5,74,41,40,21887,16760400,8250,12520,16756636,9159,1778,5621,Tag0,unknown
1545011468236,0,-40,-8.7890625E-6,74,41,40,21887,16760400,8250,12520,16756636,9159,1778,5621,Tag0,unknown
1545011468237,0,-51,-1.1206054687499999E-5,74,41,40,21887,16760400,8250,12520,16756636,9159,1778,5621,Tag0,unknown
1545011468237,0,-111,-2.43896484375E-5,74,41,40,21887,16760400,8250,12520,16756636,9159,1778,5621,Tag0,unknown
1545011468237,0,113,2.48291015625E-5,74,41,40,21887,16760400,8250,12520,16756636,9159,1778,5621,Tag0,unknown
1545011468237,0,-105,-2.30712890625E-5,74,41,40,21887,16760400,8250,12520,16756636,9159,1778,5621,Tag0,unknown
1545011468237,0,-51,-1.1206054687499999E-5,74,41,40,21887,16760400,8250,12520,16756636,9159,1778,5621,Tag0,unknown
1545011468238,0,-48,-1.0546875E-5,74,41,40,21887,16760400,8250,12520,16756636,9159,1778,5621,Tag0,unknown
1545011468238,0,-92,-2.021484375E-5,74,41,40,21887,16760400,8250,12520,16756636,9159,1778,5621,Tag0,unknown
1545011468238,0,-110,-2.4169921875E-5,74,41,40,21887,16760400,8250,12520,16756636,9159,1778,5621,Tag0,unknown
1545011468238,0,-68,-1.4941406250000001E-5,74,41,40,21887,16760400,8250,12520,16756636,9159,1778,5621,Tag0,unknown
1545011468241,0,-7,-1.5380859375E-6,74,41,40,21887,16760400,8250,12520,16756636,9159,1778,5621,Tag0,unknown
1545011468241,0,-12,-2.63671875E-6,74,41,40,21887,16760400,8250,12520,16756636,9159,1778,5621,Tag0,unknown
1545011468241,0,-75,-1.64794921875E-5,74,41,40,21887,16760400,8250,12520,16756636,9159,1778,5621,Tag0,unknown
1545011468241,0,-123,-2.70263671875E-5,74,41,40,21887,16760400,8250,12520,16756636,9159,1778,5621,Tag0,unknown
1545011468242,0,-101,-2.2192382812500002E-5,74,41,40,21887,16760400,8250,12520,16756636,9159,1778,5621,Tag0,unknown
1545011468256,0,-39,-8.5693359375E-6,74,41,40,21887,16760400,8250,12520,16756636,9159,1778,5621,Tag0,unknown
1545011468256,0,-32,-7.03125E-6,74,41,40,21887,16760400,8250,12520,16756636,9159,1778,5621,Tag0,unknown
1545011468257,0,-89,-1.95556640625E-5,74,41,40,21887,16760400,8250,12520,16756636,9159,1778,5621,Tag0,unknown
1545011468257,0,-127,-2.79052734375E-5,74,41,40,21887,16760400,8250,12520,16756636,9159,1778,5621,Tag0,unknown
1545011468258,0,-103,-2.26318359375E-5,74,41,40,21887,16760400,8250,12520,16756636,9159,1778,5621,Tag0,unknown
1545011468258,0,-43,-9.448242187500001E-6,74,41,40,21887,16760400,8250,12520,16756636,9159,1778,5621,Tag0,unknown
1545011468258,0,-23,-5.0537109375E-6,74,41,40,21887,16760400,8250,12520,16756636,9159,1778,5621,Tag0,unknown
1545011468258,0,-62,-1.3623046875E-5,74,41,40,21887,16760400,8250,12520,16756636,9159,1778,5621,Tag0,unknown
1545011468275,0,-110,-2.4169921875E-5,74,41,40,21887,16760400,8250,12520,16756636,9159,1778,5621,Tag0,unknown
1545011468276,0,-107,-2.35107421875E-5,74,41,40,21887,16760400,8250,12520,16756636,9159,1778,5621,Tag0,unknown
1545011468276,0,-46,-1.0107421875E-5,74,41,40,21887,16760400,8250,12520,16756636,9159,1778,5621,Tag0,unknown
1545011468276,0,-19,-4.1748046875E-6,74,41,40,21887,16760400,8250,12520,16756636,9159,1778,5621,Tag0,unknown
1545011468276,0,-57,-1.2524414062500001E-5,74,41,40,21887,16760400,8250,12520,16756636,9159,1778,5621,Tag0,unknown
1545011468276,0,-101,-2.2192382812500002E-5,74,41,40,21887,16760400,8250,12520,16756636,9159,1778,5621,Tag0,unknown
1545011468277,0,-99,-2.1752929687500003E-5,74,41,40,21887,16760400,8250,12520,16756636,9159,1778,5621,Tag0,unknown
1545011468277,0,-46,-1.0107421875E-5,74,41,40,21887,16760400,8250,12520,16756636,9159,1778,5621,Tag0,unknown
1545011468277,0,-13,-2.8564453125E-6,74,41,40,21887,16760400,8250,12520,16756636,9159,1778,5621,Tag0,unknown
1545011468289,0,-42,-9.228515625000002E-6,74,41,40,21887,16760400,8250,12520,16756636,9159,1778,5621,Tag0,unknown
1545011468289,0,-94,-2.0654296875000002E-5,74,41,40,21887,16760400,8250,12520,16756636,9159,1778,5621,Tag0,unknown
1545011468290,0,-118,-2.5927734375E-5,74,41,40,21887,16760400,8250,12520,16756636,9159,1778,5621,Tag0,unknown
1545011468290,0,-78,-1.7138671875E-5,74,41,40,21887,16760400,8250,12520,16756636,9159,1778,5621,Tag0,unknown
1545011468291,0,-45,-9.8876953125E-6,74,41,40,21887,16760400,8250,12520,16756636,9159,1778,5621,Tag0,unknown
1545011468291,0,-75,-1.64794921875E-5,74,41,40,21887,16760400,8250,12520,16756636,9159,1778,5621,Tag0,unknown
1545011468291,0,-127,-2.79052734375E-5,74,41,40,21887,16760400,8250,12520,16756636,9159,1778,5621,Tag0,unknown
1545011468309,0,119,2.6147460937500004E-5,74,41,40,21887,16760400,8250,12520,16756636,9159,1778,5621,Tag0,unknown
1545011468310,0,-83,-1.82373046875E-5,74,41,40,21887,16760400,8250,12520,16756636,9159,1778,5621,Tag0,unknown
1545011468310,0,-36,-7.91015625E-6,74,41,40,21887,16760400,8250,12520,16756636,9159,1778,5621,Tag0,unknown
1545011468310,0,-70,-1.5380859375E-5,74,41,40,21887,16760400,8250,12520,16756636,9159,1778,5621,Tag0,unknown
1545011468310,0,116,2.548828125E-5,74,41,40,21887,16760400,8250,12520,16756636,9159,1778,5621,Tag0,unknown
1545011468311,0,89,1.95556640625E-5,74,41,40,21887,16760400,8250,12520,16756636,9159,1778,5621,Tag0,unknown
1545011468311,0,-124,-2.724609375E-5,74,41,40,21887,16760400,8250,12520,16756636,9159,1778,5621,Tag0,unknown
1545011468311,0,-71,-1.56005859375E-5,74,41,40,21887,16760400,8250,12520,16756636,9159,1778,5621,Tag0,unknown
1545011468312,0,-80,-1.7578125E-5,74,41,40,21887,16760400,8250,12520,16756636,9159,1778,5621,Tag0,unknown
1545011468312,0,122,2.6806640625E-5,74,41,40,21887,16760400,8250,12520,16756636,9159,1778,5621,Tag0,unknown
1545011468312,0,92,2.021484375E-5,74,41,40,21887,16760400,8250,12520,16756636,9159,1778,5621,Tag0,unknown
1545011468325,0,120,2.63671875E-5,74,41,40,21887,16760400,8250,12520,16756636,9159,1778,5621,Tag0,unknown
1545011468326,0,-79,-1.7358398437500003E-5,74,41,40,21887,16760400,8250,12520,16756636,9159,1778,5621,Tag0,unknown
1545011468326,0,-83,-1.82373046875E-5,74,41,40,21887,16760400,8250,12520,16756636,9159,1778,5621,Tag0,unknown
1545011468326,0,106,2.3291015625000003E-5,74,41,40,21887,16760400,8250,12520,16756636,9159,1778,5621,Tag0,unknown
1545011468326,0,53,1.1645507812500002E-5,74,41,40,21887,16760400,8250,12520,16756636,9159,1778,5621,Tag0,unknown
1545011468327,0,83,1.82373046875E-5,74,41,40,21887,16760400,8250,12520,16756636,9159,1778,5621,Tag0,unknown
1545011468327,0,-93,-2.04345703125E-5,74,41,40,21887,16760400,8250,12520,16756636,9159,1778,5621,Tag0,unknown
1545011468338,0,-76,-1.669921875E-5,74,41,40,21887,16760400,8250,12520,16756636,9159,1778,5621,Tag0,unknown
1545011468339,0,122,2.6806640625E-5,74,41,40,21887,16760400,8250,12520,16756636,9159,1778,5621,Tag0,unknown
1545011468339,0,70,1.5380859375E-5,74,41,40,21887,16760400,8250,12520,16756636,9159,1778,5621,Tag0,unknown
1545011468339,0,90,1.9775390625E-5,74,41,40,21887,16760400,8250,12520,16756636,9159,1778,5621,Tag0,unknown
1545011468340,0,-99,-2.1752929687500003E-5,74,41,40,21887,16760400,8250,12520,16756636,9159,1778,5621,Tag0,unknown
1545011468340,0,-93,-2.04345703125E-5,74,41,40,21887,16760400,8250,12520,16756636,9159,1778,5621,Tag0,unknown
1545011468340,0,92,2.021484375E-5,74,41,40,21887,16760400,8250,12520,16756636,9159,1778,5621,Tag0,unknown
1545011468340,0,26,5.712890625E-6,74,41,40,21887,16760400,8250,12520,16756636,9159,1778,5621,Tag0,unknown
1545011468340,0,24,5.2734375E-6,74,41,40,21887,16760400,8250,12520,16756636,9159,1778,5621,Tag0,unknown
1545011468359,0,82,1.8017578124999998E-5,74,41,40,21887,16760400,8250,12520,16756636,9159,1778,5621,Tag0,unknown
1545011468361,0,113,2.48291015625E-5,74,41,40,21887,16760400,8250,12520,16756636,9159,1778,5621,Tag0,unknown
1545011468362,0,83,1.82373046875E-5,74,41,40,21887,16760400,8250,12520,16756636,9159,1778,5621,Tag0,unknown
1545011468362,0,57,1.2524414062500001E-5,74,41,40,21887,16760400,8250,12520,16756636,9159,1778,5621,Tag0,unknown
1545011468362,0,87,1.91162109375E-5,74,41,40,21887,16760400,8250,12520,16756636,9159,1778,5621,Tag0,unknown
1545011468362,0,-96,-2.109375E-5,74,41,40,21887,16760400,8250,12520,16756636,9159,1778,5621,Tag0,unknown
1545011468362,0,-75,-1.64794921875E-5,74,41,40,21887,16760400,8250,12520,16756636,9159,1778,5621,Tag0,unknown
1545011468363,0,119,2.6147460937500004E-5,74,41,40,21887,16760400,8250,12520,16756636,9159,1778,5621,Tag0,unknown
1545011468373,0,55,1.20849609375E-5,74,41,40,21887,16760400,8250,12520,16756636,9159,1778,5621,Tag0,unknown
1545011468373,0,66,1.4501953125E-5,74,41,40,21887,16760400,8250,12520,16756636,9159,1778,5621,Tag0,unknown
1545011468373,0,-125,-2.74658203125E-5,74,41,40,21887,16760400,8250,12520,16756636,9159,1778,5621,Tag0,unknown
1545011468374,0,-91,-1.99951171875E-5,74,41,40,21887,16760400,8250,12520,16756636,9159,1778,5621,Tag0,unknown
1545011468391,0,115,2.52685546875E-5,74,41,40,21887,16760400,8250,12520,16756636,9159,1778,5621,Tag0,unknown
1545011468391,0,33,7.2509765625E-6,74,41,40,21887,16760400,8250,12520,16756636,9159,1778,5621,Tag0,unknown
1545011468391,0,5,1.0986328125E-6,74,41,40,21887,16760400,8250,12520,16756636,9159,1778,5621,Tag0,unknown
1545011468391,0,57,1.2524414062500001E-5,74,41,40,21887,16760400,8250,12520,16756636,9159,1778,5621,Tag0,unknown
1545011468392,0,112,2.4609375E-5,74,41,40,21887,16760400,8250,12520,16756636,9159,1778,5621,Tag0,unknown
1545011468392,0,87,1.91162109375E-5,74,41,40,21887,16760400,8250,12520,16756636,9159,1778,5621,Tag0,unknown
1545011468392,0,11,2.4169921875E-6,74,41,40,21887,16760400,8250,12520,16756636,9159,1778,5621,Tag0,unknown
1545011468392,0,-277,-6.0864257812500005E-5,74,41,40,21887,16760400,8250,12520,16756636,9159,1778,5621,Tag0,unknown
1545011468392,0,27,5.9326171875000005E-6,74,41,40,21887,16760400,8250,12520,16756636,9159,1778,5621,Tag0,unknown
1545011468392,0,85,1.86767578125E-5,74,41,40,21887,16760400,8250,12520,16756636,9159,1778,5621,Tag0,unknown
1545011468395,0,68,1.4941406250000001E-5,74,41,40,21887,16760400,8250,12520,16756636,9159,1778,5621,Tag0,unknown
1545011468396,0,2,4.39453125E-7,74,41,40,21887,16760400,8250,12520,16756636,9159,1778,5621,Tag0,unknown
1545011468396,0,-276,-6.064453125E-5,74,41,40,21887,16760400,8250,12520,16756636,9159,1778,5621,Tag0,unknown
1545011468396,0,37,8.1298828125E-6,74,41,40,21887,16760400,8250,12520,16756636,9159,1778,5621,Tag0,unknown
1545011468406,0,105,2.30712890625E-5,74,41,40,21887,16760400,8250,12520,16756636,9159,1778,5621,Tag0,unknown
1545011468406,0,107,2.35107421875E-5,74,41,40,21887,16760400,8250,12520,16756636,9159,1778,5621,Tag0,unknown
1545011468407,0,59,1.29638671875E-5,74,41,40,21887,16760400,8250,12520,16756636,9159,1778,5621,Tag0,unknown
1545011468407,0,33,7.2509765625E-6,74,41,40,21887,16760400,8250,12520,16756636,9159,1778,5621,Tag0,unknown
1545011468407,0,65,1.42822265625E-5,74,41,40,21887,16760400,8250,12520,16756636,9159,1778,5621,Tag0,unknown
1545011468408,0,119,2.6147460937500004E-5,74,41,40,21887,16760400,8250,12520,16756636,9159,1778,5621,Tag0,unknown
1545011468408,0,117,2.5708007812499998E-5,74,41,40,21887,16760400,8250,12520,16756636,9159,1778,5621,Tag0,unknown
1545011468408,0,55,1.20849609375E-5,74,41,40,21887,16760400,8250,12520,16756636,9159,1778,5621,Tag0,unknown
1545011468422,0,11,2.4169921875E-6,74,41,40,21887,16760400,8250,12520,16756636,9159,1778,5621,Tag0,unknown
1545011468422,0,37,8.1298828125E-6,74,41,40,21887,16760400,8250,12520,16756636,9159,1778,5621,Tag0,unknown
1545011468423,0,105,2.30712890625E-5,74,41,40,21887,16760400,8250,12520,16756636,9159,1778,5621,Tag0,unknown
1545011468423,0,122,2.6806640625E-5,74,41,40,21887,16760400,8250,12520,16756636,9159,1778,5621,Tag0,unknown
1545011468423,0,72,1.58203125E-5,74,41,40,21887,16760400,8250,12520,16756636,9159,1778,5621,Tag0,unknown
1545011468426,0,22,4.833984375E-6,74,41,40,21887,16760400,8250,12520,16756636,9159,1778,5621,Tag0,unknown
1545011468426,0,37,8.1298828125E-6,74,41,40,21887,16760400,8250,12520,16756636,9159,1778,5621,Tag0,unknown
1545011468426,0,99,2.1752929687500003E-5,74,41,40,21887,16760400,8250,12520,16756636,9159,1778,5621,Tag0,unknown
1545011468439,0,121,2.6586914062500003E-5,74,41,40,21887,16760400,8250,12520,16756636,9159,1778,5621,Tag0,unknown
1545011468439,0,75,1.64794921875E-5,74,41,40,21887,16760400,8250,12520,16756636,9159,1778,5621,Tag0,unknown
1545011468439,0,25,5.4931640625E-6,74,41,40,21887,16760400,8250,12520,16756636,9159,1778,5621,Tag0,unknown
1545011468439,0,40,8.7890625E-6,74,41,40,21887,16760400,8250,12520,16756636,9159,1778,5621,Tag0,unknown
1545011468440,0,113,2.48291015625E-5,74,41,40,21887,16760400,8250,12520,16756636,9159,1778,5621,Tag0,unknown
1545011468440,0,-106,-2.3291015625000003E-5,74,41,40,21887,16760400,8250,12520,16756636,9159,1778,5621,Tag0,unknown
1545011468440,0,105,2.30712890625E-5,74,41,40,21887,16760400,8250,12520,16756636,9159,1778,5621,Tag0,unknown
1545011468440,0,41,9.008789062499999E-6,74,41,40,21887,16760400,8250,12520,16756636,9159,1778,5621,Tag0,unknown
1545011468456,0,37,8.1298828125E-6,74,41,40,21887,16760400,8250,12520,16756636,9159,1778,5621,Tag0,unknown
1545011468457,0,96,2.109375E-5,74,41,40,21887,16760400,8250,12520,16756636,9159,1778,5621,Tag0,unknown
1545011468457,0,-121,-2.6586914062500003E-5,74,41,40,21887,16760400,8250,12520,16756636,9159,1778,5621,Tag0,unknown
1545011468458,0,89,1.95556640625E-5,74,41,40,21887,16760400,8250,12520,16756636,9159,1778,5621,Tag0,unknown
1545011468458,0,8,1.7578125E-6,74,41,40,21887,16760400,8250,12520,16756636,9159,1778,5621,Tag0,unknown
1545011468461,0,-265,-5.82275390625E-5,74,41,40,21887,16760400,8250,12520,16756636,9159,1778,5621,Tag0,unknown
1545011468461,0,57,1.2524414062500001E-5,74,41,40,21887,16760400,8250,12520,16756636,9159,1778,5621,Tag0,unknown
1545011468461,0,114,2.5048828125000003E-5,74,41,40,21887,16760400,8250,12520,16756636,9159,1778,5621,Tag0,unknown
1545011468461,0,89,1.95556640625E-5,74,41,40,21887,16760400,8250,12520,16756636,9159,1778,5621,Tag0,unknown
1545011468462,0,23,5.0537109375E-6,74,41,40,21887,16760400,8250,12520,16756636,9159,1778,5621,Tag0,unknown
1545011468472,0,-259,-5.69091796875E-5,74,41,40,21887,16760400,8250,12520,16756636,9159,1778,5621,Tag0,unknown
1545011468473,0,49,1.07666015625E-5,74,41,40,21887,16760400,8250,12520,16756636,9159,1778,5621,Tag0,unknown
1545011468473,0,109,2.39501953125E-5,74,41,40,21887,16760400,8250,12520,16756636,9159,1778,5621,Tag0,unknown
1545011468473,0,92,2.021484375E-5,74,41,40,21887,16760400,8250,12520,16756636,9159,1778,5621,Tag0,unknown
1545011468473,0,37,8.1298828125E-6,74,41,40,21887,16760400,8250,12520,16756636,9159,1778,5621,Tag0,unknown
1545011468474,0,9,1.9775390625E-6,74,41,40,21887,16760400,8250,12520,16756636,9159,1778,5621,Tag0,unknown
1545011468474,0,59,1.29638671875E-5,74,41,40,21887,16760400,8250,12520,16756636,9159,1778,5621,Tag0,unknown
1545011468474,0,117,2.5708007812499998E-5,74,41,40,21887,16760400,8250,12520,16756636,9159,1778,5621,Tag0,unknown
1545011468489,0,107,2.35107421875E-5,74,41,40,21887,16760400,8250,12520,16756636,9159,1778,5621,Tag0,unknown
1545011468489,0,52,1.142578125E-5,74,41,40,21887,16760400,8250,12520,16756636,9159,1778,5621,Tag0,unknown
1545011468489,0,23,5.0537109375E-6,74,41,40,21887,16760400,8250,12520,16756636,9159,1778,5621,Tag0,unknown
1545011468489,0,61,1.34033203125E-5,74,41,40,21887,16760400,8250,12520,16756636,9159,1778,5621,Tag0,unknown
1545011468492,0,117,2.5708007812499998E-5,74,41,40,21887,16760400,8250,12520,16756636,9159,1778,5621,Tag0,unknown
1545011468493,0,101,2.2192382812500002E-5,74,41,40,21887,16760400,8250,12520,16756636,9159,1778,5621,Tag0,unknown
1545011468493,0,42,9.228515625000002E-6,74,41,40,21887,16760400,8250,12520,16756636,9159,1778,5621,Tag0,unknown
1545011468493,0,16,3.515625E-6,74,41,40,21887,16760400,8250,12520,16756636,9159,1778,5621,Tag0,unknown
1545011468506,0,53,1.1645507812500002E-5,74,41,40,21887,16760400,8250,12520,16756636,9159,1778,5621,Tag0,unknown
1545011468506,0,117,2.5708007812499998E-5,74,41,40,21887,16760400,8250,12520,16756636,9159,1778,5621,Tag0,unknown
1545011468506,0,115,2.52685546875E-5,74,41,40,21887,16760400,8250,12520,16756636,9159,1778,5621,Tag0,unknown
1545011468507,0,36,7.91015625E-6,74,41,40,21887,16760400,8250,12520,16756636,9159,1778,5621,Tag0,unknown
1545011468507,0,-300,-6.591796875E-5,74,41,40,21887,16760400,8250,12520,16756636,9159,1778,5621,Tag0,unknown
1545011468507,0,-316,-6.943359375000001E-5,74,41,40,21887,16760400,8250,12520,16756636,9159,1778,5621,Tag0,unknown
1545011468507,0,-280,-6.15234375E-5,74,41,40,21887,16760400,8250,12520,16756636,9159,1778,5621,Tag0,unknown
1545011468507,0,-259,-5.69091796875E-5,74,41,40,21887,16760400,8250,12520,16756636,9159,1778,5621,Tag0,unknown
1545011468527,0,-260,-5.712890625E-5,74,41,40,21887,16760400,8250,12520,16756636,9159,1778,5621,Tag0,unknown
1545011468527,0,25,5.4931640625E-6,74,41,40,21887,16760400,8250,12520,16756636,9159,1778,5621,Tag0,unknown
1545011468528,0,101,2.2192382812500002E-5,74,41,40,21887,16760400,8250,12520,16756636,9159,1778,5621,Tag0,unknown
1545011468528,0,-61,-1.34033203125E-5,74,41,40,21887,16760400,8250,12520,16756636,9159,1778,5621,Tag0,unknown
1545011468528,0,-5,-1.0986328125E-6,74,41,40,21887,16760400,8250,12520,16756636,9159,1778,5621,Tag0,unknown
1545011468532,0,-15,-3.2958984375E-6,74,41,40,21887,16760400,8250,12520,16756636,9159,1778,5621,Tag0,unknown
1545011468533,0,-51,-1.1206054687499999E-5,74,41,40,21887,16760400,8250,12520,16756636,9159,1778,5621,Tag0,unknown
1545011468533,0,-29,-6.3720703125E-6,74,41,40,21887,16760400,8250,12520,16756636,9159,1778,5621,Tag0,unknown
1545011468533,0,322,7.0751953125E-5,74,41,40,21887,16760400,8250,12520,16756636,9159,1778,5621,Tag0,unknown
1545011468533,0,153,3.3618164062500004E-5,74,41,40,21887,16760400,8250,12520,16756636,9159,1778,5621,Tag0,unknown
1545011468533,0,154,3.3837890625E-5,74,41,40,21887,16760400,8250,12520,16756636,9159,1778,5621,Tag0,unknown
1545011468541,0,345,7.58056640625E-5,74,41,40,21887,16760400,8250,12520,16756636,9159,1778,5621,Tag0,unknown
1545011468541,0,310,6.8115234375E-5,74,41,40,21887,16760400,8250,12520,16756636,9159,1778,5621,Tag0,unknown
1545011468541,0,363,7.97607421875E-5,74,41,40,21887,16760400,8250,12520,16756636,9159,1778,5621,Tag0,unknown
1545011468541,0,185,4.06494140625E-5,74,41,40,21887,16760400,8250,12520,16756636,9159,1778,5621,Tag0,unknown
1545011468541,0,203,4.460449218750001E-5,74,41,40,21887,16760400,8250,12520,16756636,9159,1778,5621,Tag0,unknown
1545011468542,0,179,3.93310546875E-5,74,41,40,21887,16760400,8250,12520,16756636,9159,1778,5621,Tag0,unknown
1545011468542,0,189,4.15283203125E-5,74,41,40,21887,16760400,8250,12520,16756636,9159,1778,5621,Tag0,unknown
1545011468558,0,515,1.131591796875E-4,74,41,40,21887,16760400,8250,12520,16756636,9159,1778,5621,Tag0,unknown
1545011468559,0,569,1.250244140625E-4,74,41,40,21887,16760400,8250,12520,16756636,9159,1778,5621,Tag0,unknown
1545011468559,0,572,1.2568359375E-4,74,41,40,21887,16760400,8250,12520,16756636,9159,1778,5621,Tag0,unknown
1545011468560,0,552,1.212890625E-4,74,41,40,21887,16760400,8250,12520,16756636,9159,1778,5621,Tag0,unknown
1545011468560,0,555,1.219482421875E-4,74,41,40,21887,16760400,8250,12520,16756636,9159,1778,5621,Tag0,unknown
1545011468560,0,593,1.3029785156250002E-4,74,41,40,21887,16760400,8250,12520,16756636,9159,1778,5621,Tag0,unknown
1545011468565,0,614,1.34912109375E-4,74,41,40,21887,16760400,8250,12520,16756636,9159,1778,5621,Tag0,unknown
1545011468565,0,595,1.307373046875E-4,74,41,40,21887,16760400,8250,12520,16756636,9159,1778,5621,Tag0,unknown
1545011468565,0,555,1.219482421875E-4,74,41,40,21887,16760400,8250,12520,16756636,9159,1778,5621,Tag0,unknown
1545011468573,0,548,1.2041015624999999E-4,74,41,40,21887,16760400,8250,12520,16756636,9159,1778,5621,Tag0,unknown
1545011468573,0,609,1.338134765625E-4,74,41,40,21887,16760400,8250,12520,16756636,9159,1778,5621,Tag0,unknown
1545011468573,0,411,9.03076171875E-5,74,41,40,21887,16760400,8250,12520,16756636,9159,1778,5621,Tag0,unknown
1545011468573,0,637,1.399658203125E-4,74,41,40,21887,16760400,8250,12520,16756636,9159,1778,5621,Tag0,unknown
1545011468592,0,560,1.23046875E-4,74,41,40,21887,16760400,8250,12520,16756636,9159,1778,5621,Tag0,unknown
1545011468592,0,533,1.171142578125E-4,74,41,40,21887,16760400,8250,12520,16756636,9159,1778,5621,Tag0,unknown
1545011468595,0,569,1.250244140625E-4,74,41,40,21887,16760400,8250,12520,16756636,9159,1778,5621,Tag0,unknown
1545011468595,0,616,1.353515625E-4,74,41,40,21887,16760400,8250,12520,16756636,9159,1778,5621,Tag0,unknown
1545011468595,0,596,1.3095703125E-4,74,41,40,21887,16760400,8250,12520,16756636,9159,1778,5621,Tag0,unknown
1545011468596,0,528,1.16015625E-4,74,41,40,21887,16760400,8250,12520,16756636,9159,1778,5621,Tag0,unknown
1545011468596,0,233,5.1196289062500006E-5,74,41,40,21887,16760400,8250,12520,16756636,9159,1778,5621,Tag0,unknown
1545011468596,0,248,5.44921875E-5,74,41,40,21887,16760400,8250,12520,16756636,9159,1778,5621,Tag0,unknown
1545011468596,0,545,1.197509765625E-4,74,41,40,21887,16760400,8250,12520,16756636,9159,1778,5621,Tag0,unknown
1545011468596,0,532,1.1689453125E-4,74,41,40,21887,16760400,8250,12520,16756636,9159,1778,5621,Tag0,unknown
1545011468597,0,210,4.6142578125E-5,74,41,40,21887,16760400,8250,12520,16756636,9159,1778,5621,Tag0,unknown
1545011468597,0,155,3.40576171875E-5,74,41,40,21887,16760400,8250,12520,16756636,9159,1778,5621,Tag0,unknown
1545011468597,0,172,3.7792968750000005E-5,74,41,40,21887,16760400,8250,12520,16756636,9159,1778,5621,Tag0,unknown
1545011468608,0,233,5.1196289062500006E-5,74,41,40,21887,16760400,8250,12520,16756636,9159,1778,5621,Tag0,unknown
1545011468608,0,244,5.361328125E-5,74,41,40,21887,16760400,8250,12520,16756636,9159,1778,5621,Tag0,unknown
1545011468609,0,173,3.80126953125E-5,74,41,40,21887,16760400,8250,12520,16756636,9159,1778,5621,Tag0,unknown
1545011468609,0,353,7.75634765625E-5,74,41,40,21887,16760400,8250,12520,16756636,9159,1778,5621,Tag0,unknown
1545011468609,0,356,7.822265625E-5,74,41,40,21887,16760400,8250,12520,16756636,9159,1778,5621,Tag0,unknown
1545011468609,0,171,3.75732421875E-5,74,41,40,21887,16760400,8250,12520,16756636,9159,1778,5621,Tag0,unknown
1545011468609,0,195,4.28466796875E-5,74,41,40,21887,16760400,8250,12520,16756636,9159,1778,5621,Tag0,unknown
1545011468610,0,374,8.2177734375E-5,74,41,40,21887,16760400,8250,12520,16756636,9159,1778,5621,Tag0,unknown
1545011468610,0,283,6.218261718750001E-5,74,41,40,21887,16760400,8250,12520,16756636,9159,1778,5621,Tag0,unknown
1545011468625,0,278,6.108398437500001E-5,74,41,40,21887,16760400,8250,12520,16756636,9159,1778,5621,Tag0,unknown
1545011468625,0,343,7.53662109375E-5,74,41,40,21887,16760400,8250,12520,16756636,9159,1778,5621,Tag0,unknown
1545011468626,0,369,8.10791015625E-5,74,41,40,21887,16760400,8250,12520,16756636,9159,1778,5621,Tag0,unknown
1545011468626,0,291,6.39404296875E-5,74,41,40,21887,16760400,8250,12520,16756636,9159,1778,5621,Tag0,unknown
1545011468629,0,-76,-1.669921875E-5,74,41,59,21887,16760400,8250,12520,16756636,9159,1778,5621,Tag0,unknown
1545011468629,0,-122,-2.6806640625E-5,74,41,59,21887,16760400,8250,12520,16756636,9159,1778,5621,Tag0,unknown
1545011468630,0,-80,-1.7578125E-5,74,41,59,21887,16760400,8250,12520,16756636,9159,1778,5621,Tag0,unknown
1545011468630,0,-43,-9.448242187500001E-6,74,41,59,21887,16760400,8250,12520,16756636,9159,1778,5621,Tag0,unknown
1545011468640,0,-77,-1.69189453125E-5,74,41,59,21887,16760400,8250,12520,16756636,9159,1778,5621,Tag0,unknown
1545011468640,0,102,2.2412109374999998E-5,74,41,59,21887,16760400,8250,12520,16756636,9159,1778,5621,Tag0,unknown
1545011468641,0,57,1.2524414062500001E-5,74,41,59,21887,16760400,8250,12520,16756636,9159,1778,5621,Tag0,unknown
1545011468641,0,75,1.64794921875E-5,74,41,59,21887,16760400,8250,12520,16756636,9159,1778,5621,Tag0,unknown
1545011468641,0,90,1.9775390625E-5,74,41,59,21887,16760400,8250,12520,16756636,9159,1778,5621,Tag0,unknown
1545011468641,0,48,1.0546875E-5,74,41,59,21887,16760400,8250,12520,16756636,9159,1778,5621,Tag0,unknown
1545011468642,0,-277,-6.0864257812500005E-5,74,41,59,21887,16760400,8250,12520,16756636,9159,1778,5621,Tag0,unknown
1545011468642,0,-301,-6.613769531250001E-5,74,41,59,21887,16760400,8250,12520,16756636,9159,1778,5621,Tag0,unknown
1545011468657,0,-264,-5.80078125E-5,74,41,59,21887,16760400,8250,12520,16756636,9159,1778,5621,Tag0,unknown
1545011468657,0,37,8.1298828125E-6,74,41,59,21887,16760400,8250,12520,16756636,9159,1778,5621,Tag0,unknown
1545011468657,0,18,3.955078125E-6,74,41,59,21887,16760400,8250,12520,16756636,9159,1778,5621,Tag0,unknown
1545011468658,0,-313,-6.87744140625E-5,74,41,59,21887,16760400,8250,12520,16756636,9159,1778,5621,Tag0,unknown
1545011468658,0,-366,-8.0419921875E-5,74,41,59,21887,16760400,8250,12520,16756636,9159,1778,5621,Tag0,unknown
1545011468661,0,-345,-7.58056640625E-5,74,41,59,21887,16760400,8250,12520,16756636,9159,1778,5621,Tag0,unknown
1545011468661,0,-284,-6.240234375E-5,74,41,59,21887,16760400,8250,12520,16756636,9159,1778,5621,Tag0,unknown
1545011468661,0,-282,-6.1962890625E-5,74,41,59,21887,16760400,8250,12520,16756636,9159,1778,5621,Tag0,unknown
1545011468661,0,-355,-7.80029296875E-5,74,41,59,21887,16760400,8250,12520,16756636,9159,1778,5621,Tag0,unknown
1545011468673,0,-180,-3.955078125E-5,74,41,59,21887,16760400,8250,12520,16756636,9159,1778,5621,Tag0,unknown
1545011468673,0,-204,-4.4824218749999996E-5,74,41,59,21887,16760400,8250,12520,16756636,9159,1778,5621,Tag0,unknown
1545011468673,0,-182,-3.9990234375E-5,74,41,59,21887,16760400,8250,12520,16756636,9159,1778,5621,Tag0,unknown
1545011468673,0,-166,-3.6474609375E-5,74,41,59,21887,16760400,8250,12520,16756636,9159,1778,5621,Tag0,unknown
1545011468674,0,-165,-3.62548828125E-5,74,41,59,21887,16760400,8250,12520,16756636,9159,1778,5621,Tag0,unknown
1545011468674,0,-177,-3.8891601562500006E-5,74,41,59,21887,16760400,8250,12520,16756636,9159,1778,5621,Tag0,unknown
1545011468674,0,-161,-3.53759765625E-5,74,41,59,21887,16760400,8250,12520,16756636,9159,1778,5621,Tag0,unknown
1545011468675,0,-371,-8.151855468750001E-5,74,41,59,21887,16760400,8250,12520,16756636,9159,1778,5621,Tag0,unknown
1545011468690,0,-369,-8.10791015625E-5,74,41,59,21887,16760400,8250,12520,16756636,9159,1778,5621,Tag0,unknown
1545011468691,0,-171,-3.75732421875E-5,74,41,59,21887,16760400,8250,12520,16756636,9159,1778,5621,Tag0,unknown
1545011468691,0,-219,-4.81201171875E-5,74,41,59,21887,16760400,8250,12520,16756636,9159,1778,5621,Tag0,unknown
1545011468692,0,-198,-4.3505859375000006E-5,74,41,59,21887,16760400,8250,12520,16756636,9159,1778,5621,Tag0,unknown
1545011468695,0,-147,-3.22998046875E-5,74,41,59,21887,16760400,8250,12520,16756636,9159,1778,5621,Tag0,unknown
1545011468695,0,-147,-3.22998046875E-5,74,41,59,21887,16760400,8250,12520,16756636,9159,1778,5621,Tag0,unknown
1545011468695,0,-213,-4.68017578125E-5,74,41,59,21887,16760400,8250,12520,16756636,9159,1778,5621,Tag0,unknown
1545011468696,0,-529,-1.162353515625E-4,74,41,59,21887,16760400,8250,12520,16756636,9159,1778,5621,Tag0,unknown
1545011468696,0,-519,-1.140380859375E-4,74,41,59,21887,16760400,8250,12520,16756636,9159,1778,5621,Tag0,unknown
1545011468696,0,-205,-4.50439453125E-5,74,41,59,21887,16760400,8250,12520,16756636,9159,1778,5621,Tag0,unknown
1545011468707,0,-180,-3.955078125E-5,74,41,59,21887,16760400,8250,12520,16756636,9159,1778,5621,Tag0,unknown
1545011468707,0,-215,-4.72412109375E-5,74,41,59,21887,16760400,8250,12520,16756636,9159,1778,5621,Tag0,unknown
1545011468707,0,-513,-1.127197265625E-4,74,41,59,21887,16760400,8250,12520,16756636,9159,1778,5621,Tag0,unknown
1545011468707,0,-253,-5.55908203125E-5,74,41,59,21887,16760400,8250,12520,16756636,9159,1778,5621,Tag0,unknown
1545011468708,0,-210,-4.6142578125E-5,74,41,59,21887,16760400,8250,12520,16756636,9159,1778,5621,Tag0,unknown
1545011468708,0,-177,-3.8891601562500006E-5,74,41,59,21887,16760400,8250,12520,16756636,9159,1778,5621,Tag0,unknown
1545011468723,0,-219,-4.81201171875E-5,74,41,59,21887,16760400,8250,12520,16756636,9159,1778,5621,Tag0,unknown
1545011468724,0,-555,-1.219482421875E-4,74,41,59,21887,16760400,8250,12520,16756636,9159,1778,5621,Tag0,unknown
1545011468724,0,-562,-1.23486328125E-4,74,41,59,21887,16760400,8250,12520,16756636,9159,1778,5621,Tag0,unknown
1545011468724,0,-205,-4.50439453125E-5,74,41,59,21887,16760400,8250,12520,16756636,9159,1778,5621,Tag0,unknown
1545011468724,0,-131,-2.87841796875E-5,74,41,59,21887,16760400,8250,12520,16756636,9159,1778,5621,Tag0,unknown
1545011468724,0,-178,-3.9111328125E-5,74,41,59,21887,16760400,8250,12520,16756636,9159,1778,5621,Tag0,unknown
1545011468728,0,-533,-1.171142578125E-4,74,41,59,21887,16760400,8250,12520,16756636,9159,1778,5621,Tag0,unknown
1545011468728,0,-581,-1.276611328125E-4,74,41,59,21887,16760400,8250,12520,16756636,9159,1778,5621,Tag0,unknown
1545011468728,0,-538,-1.1821289062499999E-4,74,41,59,21887,16760400,8250,12520,16756636,9159,1778,5621,Tag0,unknown
1545011468728,0,-204,-4.4824218749999996E-5,74,41,59,21887,16760400,8250,12520,16756636,9159,1778,5621,Tag0,unknown
1545011468738,0,-184,-4.04296875E-5,74,41,59,21887,16760400,8250,12520,16756636,9159,1778,5621,Tag0,unknown
1545011468738,0,-228,-5.0097656250000005E-5,74,41,59,21887,16760400,8250,12520,16756636,9159,1778,5621,Tag0,unknown
1545011468739,0,-519,-1.140380859375E-4,74,41,59,21887,16760400,8250,12520,16756636,9159,1778,5621,Tag0,unknown
1545011468739,0,-235,-5.16357421875E-5,74,41,59,21887,16760400,8250,12520,16756636,9159,1778,5621,Tag0,unknown
1545011468739,0,-184,-4.04296875E-5,74,41,59,21887,16760400,8250,12520,16756636,9159,1778,5621,Tag0,unknown
1545011468739,0,-189,-4.15283203125E-5,74,41,59,21887,16760400,8250,12520,16756636,9159,1778,5621,Tag0,unknown
1545011468740,0,-516,-1.1337890625000001E-4,74,41,59,21887,16760400,8250,12520,16756636,9159,1778,5621,Tag0,unknown
1545011468740,0,-555,-1.219482421875E-4,74,41,59,21887,16760400,8250,12520,16756636,9159,1778,5621,Tag0,unknown
1545011468756,0,-248,-5.44921875E-5,74,41,59,21887,16760400,8250,12520,16756636,9159,1778,5621,Tag0,unknown
1545011468757,0,-169,-3.7133789062499996E-5,74,41,59,21887,16760400,8250,12520,16756636,9159,1778,5621,Tag0,unknown
1545011468757,0,-179,-3.93310546875E-5,74,41,59,21887,16760400,8250,12520,16756636,9159,1778,5621,Tag0,unknown
1545011468757,0,-515,-1.131591796875E-4,74,41,59,21887,16760400,8250,12520,16756636,9159,1778,5621,Tag0,unknown
1545011468757,0,-570,-1.25244140625E-4,74,41,59,21887,16760400,8250,12520,16756636,9159,1778,5621,Tag0,unknown
1545011468758,0,-541,-1.1887207031250001E-4,74,41,59,21887,16760400,8250,12520,16756636,9159,1778,5621,Tag0,unknown
1545011468761,0,-215,-4.72412109375E-5,74,41,59,21887,16760400,8250,12520,16756636,9159,1778,5621,Tag0,unknown
1545011468761,0,-203,-4.460449218750001E-5,74,41,59,21887,16760400,8250,12520,16756636,9159,1778,5621,Tag0,unknown
1545011468761,0,-249,-5.47119140625E-5,74,41,59,21887,16760400,8250,12520,16756636,9159,1778,5621,Tag0,unknown
1545011468772,0,-536,-1.1777343750000001E-4,74,41,59,21887,16760400,8250,12520,16756636,9159,1778,5621,Tag0,unknown
1545011468772,0,-251,-5.5151367187500004E-5,74,41,59,21887,16760400,8250,12520,16756636,9159,1778,5621,Tag0,unknown
1545011468773,0,-190,-4.1748046875E-5,74,41,59,21887,16760400,8250,12520,16756636,9159,1778,5621,Tag0,unknown
1545011468773,0,-171,-3.75732421875E-5,74,41,59,21887,16760400,8250,12520,16756636,9159,1778,5621,Tag0,unknown
1545011468773,0,-217,-4.76806640625E-5,74,41,59,21887,16760400,8250,12520,16756636,9159,1778,5621,Tag0,unknown
1545011468773,0,-523,-1.149169921875E-4,74,41,59,21887,16760400,8250,12520,16756636,9159,1778,5621,Tag0,unknown
1545011468774,0,-515,-1.131591796875E-4,74,41,59,21887,16760400,8250,12520,16756636,9159,1778,5621,Tag0,unknown
1545011468774,0,-187,-4.10888671875E-5,74,41,59,21887,16760400,8250,12520,16756636,9159,1778,5621,Tag0,unknown
1545011468790,0,-146,-3.2080078125000004E-5,74,41,59,21887,16760400,8250,12520,16756636,9159,1778,5621,Tag0,unknown
1545011468791,0,-185,-4.06494140625E-5,74,41,59,21887,16760400,8250,12520,16756636,9159,1778,5621,Tag0,unknown
1545011468791,0,-519,-1.140380859375E-4,74,41,59,21887,16760400,8250,12520,16756636,9159,1778,5621,Tag0,unknown
1545011468792,0,-551,-1.210693359375E-4,74,41,59,21887,16760400,8250,12520,16756636,9159,1778,5621,Tag0,unknown
1545011468792,0,-237,-5.2075195312500004E-5,74,41,59,21887,16760400,8250,12520,16756636,9159,1778,5621,Tag0,unknown
1545011468793,0,-171,-3.75732421875E-5,74,41,59,21887,16760400,8250,12520,16756636,9159,1778,5621,Tag0,unknown
1545011468793,0,-183,-4.02099609375E-5,74,41,59,21887,16760400,8250,12520,16756636,9159,1778,5621,Tag0,unknown
1545011468796,0,-246,-5.4052734375E-5,74,41,59,21887,16760400,8250,12520,16756636,9159,1778,5621,Tag0,unknown
1545011468797,0,-532,-1.1689453125E-4,74,41,59,21887,16760400,8250,12520,16756636,9159,1778,5621,Tag0,unknown
1545011468797,0,-230,-5.0537109375E-5,74,41,59,21887,16760400,8250,12520,16756636,9159,1778,5621,Tag0,unknown
1545011468806,0,-157,-3.44970703125E-5,74,41,59,21887,16760400,8250,12520,16756636,9159,1778,5621,Tag0,unknown
1545011468806,0,-146,-3.2080078125000004E-5,74,41,59,21887,16760400,8250,12520,16756636,9159,1778,5621,Tag0,unknown
1545011468807,0,-195,-4.28466796875E-5,74,41,59,21887,16760400,8250,12520,16756636,9159,1778,5621,Tag0,unknown
1545011468807,0,-234,-5.1416015624999996E-5,74,41,59,21887,16760400,8250,12520,16756636,9159,1778,5621,Tag0,unknown
1545011468807,0,-221,-4.85595703125E-5,74,41,59,21887,16760400,8250,12520,16756636,9159,1778,5621,Tag0,unknown
1545011468807,0,-194,-4.2626953125E-5,74,41,59,21887,16760400,8250,12520,16756636,9159,1778,5621,Tag0,unknown
1545011468807,0,-197,-4.32861328125E-5,74,41,59,21887,16760400,8250,12520,16756636,9159,1778,5621,Tag0,unknown
1545011468808,0,-221,-4.85595703125E-5,74,41,59,21887,16760400,8250,12520,16756636,9159,1778,5621,Tag0,unknown
1545011468821,0,-220,-4.833984375E-5,74,41,59,21887,16760400,8250,12520,16756636,9159,1778,5621,Tag0,unknown
1545011468821,0,-173,-3.80126953125E-5,74,41,59,21887,16760400,8250,12520,16756636,9159,1778,5621,Tag0,unknown
1545011468821,0,-378,-8.3056640625E-5,74,41,59,21887,16760400,8250,12520,16756636,9159,1778,5621,Tag0,unknown
1545011468822,0,-129,-2.8344726562500002E-5,74,41,59,21887,16760400,8250,12520,16756636,9159,1778,5621,Tag0,unknown
1545011468822,0,-177,-3.8891601562500006E-5,74,41,59,21887,16760400,8250,12520,16756636,9159,1778,5621,Tag0,unknown
1545011468825,0,-199,-4.3725585937499995E-5,74,41,59,21887,16760400,8250,12520,16756636,9159,1778,5621,Tag0,unknown
1545011468825,0,-174,-3.8232421875E-5,74,41,59,21887,16760400,8250,12520,16756636,9159,1778,5621,Tag0,unknown
1545011468826,0,-137,-3.0102539062499998E-5,74,41,59,21887,16760400,8250,12520,16756636,9159,1778,5621,Tag0,unknown
1545011468840,0,-152,-3.33984375E-5,74,41,59,21887,16760400,8250,12520,16756636,9159,1778,5621,Tag0,unknown
1545011468841,0,-216,-4.7460937500000004E-5,74,41,59,21887,16760400,8250,12520,16756636,9159,1778,5621,Tag0,unknown
1545011468842,0,-251,-5.5151367187500004E-5,74,41,59,21887,16760400,8250,12520,16756636,9159,1778,5621,Tag0,unknown
1545011468842,0,-215,-4.72412109375E-5,74,41,59,21887,16760400,8250,12520,16756636,9159,1778,5621,Tag0,unknown
1545011468842,0,-148,-3.251953125E-5,74,41,59,21887,16760400,8250,12520,16756636,9159,1778,5621,Tag0,unknown
1545011468843,0,-135,-2.96630859375E-5,74,41,59,21887,16760400,8250,12520,16756636,9159,1778,5621,Tag0,unknown
1545011468843,0,-188,-4.1308593750000004E-5,74,41,59,21887,16760400,8250,12520,16756636,9159,1778,5621,Tag0,unknown
1545011468843,0,-238,-5.229492187500001E-5,74,41,59,21887,16760400,8250,12520,16756636,9159,1778,5621,Tag0,unknown
1545011468843,0,-215,-4.72412109375E-5,74,41,59,21887,16760400,8250,12520,16756636,9159,1778,5621,Tag0,unknown
1545011468856,0,-132,-2.900390625E-5,74,41,59,21887,16760400,8250,12520,16756636,9159,1778,5621,Tag0,unknown
1545011468856,0,-354,-7.778320312500001E-5,74,41,59,21887,16760400,8250,12520,16756636,9159,1778,5621,Tag0,unknown
1545011468857,0,-141,-3.09814453125E-5,74,41,59,21887,16760400,8250,12520,16756636,9159,1778,5621,Tag0,unknown
1545011468861,0,-184,-4.04296875E-5,74,41,59,21887,16760400,8250,12520,16756636,9159,1778,5621,Tag0,unknown
1545011468861,0,-157,-3.44970703125E-5,74,41,59,21887,16760400,8250,12520,16756636,9159,1778,5621,Tag0,unknown
1545011468861,0,-346,-7.6025390625E-5,74,41,59,21887,16760400,8250,12520,16756636,9159,1778,5621,Tag0,unknown
1545011468862,0,-325,-7.14111328125E-5,74,41,59,21887,16760400,8250,12520,16756636,9159,1778,5621,Tag0,unknown
1545011468862,0,-363,-7.97607421875E-5,74,41,59,21887,16760400,8250,12520,16756636,9159,1778,5621,Tag0,unknown
1545011468862,0,-167,-3.6694335937500004E-5,74,41,59,21887,16760400,8250,12520,16756636,9159,1778,5621,Tag0,unknown
1545011468873,0,-178,-3.9111328125E-5,74,41,59,21887,16760400,8250,12520,16756636,9159,1778,5621,Tag0,unknown
1545011468874,0,-377,-8.28369140625E-5,74,41,59,21887,16760400,8250,12520,16756636,9159,1778,5621,Tag0,unknown
1545011468874,0,-333,-7.316894531249999E-5,74,41,59,21887,16760400,8250,12520,16756636,9159,1778,5621,Tag0,unknown
1545011468875,0,-357,-7.844238281250001E-5,74,41,59,21887,16760400,8250,12520,16756636,9159,1778,5621,Tag0,unknown
1545011468875,0,-153,-3.3618164062500004E-5,74,41,59,21887,16760400,8250,12520,16756636,9159,1778,5621,Tag0,unknown
1545011468875,0,-156,-3.427734375E-5,74,41,59,21887,16760400,8250,12520,16756636,9159,1778,5621,Tag0,unknown
1545011468876,0,-345,-7.58056640625E-5,74,41,59,21887,16760400,8250,12520,16756636,9159,1778,5621,Tag0,unknown
1545011468876,0,-298,-6.5478515625E-5,74,41,59,21887,16760400,8250,12520,16756636,9159,1778,5621,Tag0,unknown
1545011468876,0,-331,-7.272949218750001E-5,74,41,59,21887,16760400,8250,12520,16756636,9159,1778,5621,Tag0,unknown
1545011468892,0,-147,-3.22998046875E-5,74,41,59,21887,16760400,8250,12520,16756636,9159,1778,5621,Tag0,unknown
1545011468892,0,-168,-3.691406250000001E-5,74,41,59,21887,16760400,8250,12520,16756636,9159,1778,5621,Tag0,unknown
1545011468895,0,-373,-8.19580078125E-5,74,41,59,21887,16760400,8250,12520,16756636,9159,1778,5621,Tag0,unknown
1545011468895,0,-313,-6.87744140625E-5,74,41,59,21887,16760400,8250,12520,16756636,9159,1778,5621,Tag0,unknown
1545011468896,0,-323,-7.09716796875E-5,74,41,59,21887,16760400,8250,12520,16756636,9159,1778,5621,Tag0,unknown
1545011468896,0,-373,-8.19580078125E-5,74,41,59,21887,16760400,8250,12520,16756636,9159,1778,5621,Tag0,unknown
1545011468896,0,-129,-2.8344726562500002E-5,74,41,59,21887,16760400,8250,12520,16756636,9159,1778,5621,Tag0,unknown
1545011468896,0,-338,-7.426757812499999E-5,74,41,59,21887,16760400,8250,12520,16756636,9159,1778,5621,Tag0,unknown
1545011468897,0,-289,-6.35009765625E-5,74,41,59,21887,16760400,8250,12520,16756636,9159,1778,5621,Tag0,unknown
1545011468905,0,-293,-6.43798828125E-5,74,41,59,21887,16760400,8250,12520,16756636,9159,1778,5621,Tag0,unknown
1545011468905,0,-341,-7.492675781250002E-5,74,41,59,21887,16760400,8250,12520,16756636,9159,1778,5621,Tag0,unknown
1545011468905,0,-360,-7.91015625E-5,74,41,59,21887,16760400,8250,12520,16756636,9159,1778,5621,Tag0,unknown
1545011468906,0,-324,-7.119140625E-5,74,41,59,21887,16760400,8250,12520,16756636,9159,1778,5621,Tag0,unknown
1545011468906,0,-273,-5.998535156250001E-5,74,41,59,21887,16760400,8250,12520,16756636,9159,1778,5621,Tag0,unknown
1545011468922,0,-279,-6.13037109375E-5,74,41,59,21887,16760400,8250,12520,16756636,9159,1778,5621,Tag0,unknown
1545011468922,0,-338,-7.426757812499999E-5,74,41,59,21887,16760400,8250,12520,16756636,9159,1778,5621,Tag0,unknown
1545011468923,0,-370,-8.1298828125E-5,74,41,59,21887,16760400,8250,12520,16756636,9159,1778,5621,Tag0,unknown
1545011468923,0,-334,-7.338867187500001E-5,74,41,59,21887,16760400,8250,12520,16756636,9159,1778,5621,Tag0,unknown
1545011468923,0,-281,-6.17431640625E-5,74,41,59,21887,16760400,8250,12520,16756636,9159,1778,5621,Tag0,unknown
1545011468923,0,-283,-6.218261718750001E-5,74,41,59,21887,16760400,8250,12520,16756636,9159,1778,5621,Tag0,unknown
1545011468923,0,-337,-7.40478515625E-5,74,41,59,21887,16760400,8250,12520,16756636,9159,1778,5621,Tag0,unknown
1545011468924,0,-373,-8.19580078125E-5,74,41,59,21887,16760400,8250,12520,16756636,9159,1778,5621,Tag0,unknown
1545011468926,0,-350,-7.6904296875E-5,74,41,59,21887,16760400,8250,12520,16756636,9159,1778,5621,Tag0,unknown
1545011468927,0,-282,-6.1962890625E-5,74,41,59,21887,16760400,8250,12520,16756636,9159,1778,5621,Tag0,unknown
1545011468941,0,2,4.39453125E-7,74,41,59,21887,16760400,8250,12520,16756636,9159,1778,5621,Tag0,unknown
1545011468941,0,-296,-6.50390625E-5,74,41,59,21887,16760400,8250,12520,16756636,9159,1778,5621,Tag0,unknown
1545011468941,0,-347,-7.62451171875E-5,74,41,59,21887,16760400,8250,12520,16756636,9159,1778,5621,Tag0,unknown
1545011468941,0,-345,-7.58056640625E-5,74,41,59,21887,16760400,8250,12520,16756636,9159,1778,5621,Tag0,unknown
1545011468942,0,-282,-6.1962890625E-5,74,41,59,21887,16760400,8250,12520,16756636,9159,1778,5621,Tag0,unknown
1545011468942,0,17,3.7353515625000003E-6,74,41,59,21887,16760400,8250,12520,16756636,9159,1778,5621,Tag0,unknown
1545011468942,0,-269,-5.9106445312499996E-5,74,41,59,21887,16760400,8250,12520,16756636,9159,1778,5621,Tag0,unknown
1545011468943,0,-339,-7.448730468750001E-5,74,41,59,21887,16760400,8250,12520,16756636,9159,1778,5621,Tag0,unknown
1545011468943,0,-353,-7.75634765625E-5,74,41,59,21887,16760400,8250,12520,16756636,9159,1778,5621,Tag0,unknown
1545011468957,0,-280,-6.15234375E-5,74,41,59,21887,16760400,8250,12520,16756636,9159,1778,5621,Tag0,unknown
1545011468957,0,40,8.7890625E-6,74,41,59,21887,16760400,8250,12520,16756636,9159,1778,5621,Tag0,unknown
1545011468957,0,27,5.9326171875000005E-6,74,41,59,21887,16760400,8250,12520,16756636,9159,1778,5621,Tag0,unknown
1545011468960,0,-273,-5.998535156250001E-5,74,41,59,21887,16760400,8250,12520,16756636,9159,1778,5621,Tag0,unknown
1545011468961,0,-270,-5.9326171875E-5,74,41,59,21887,16760400,8250,12520,16756636,9159,1778,5621,Tag0,unknown
1545011468961,0,43,9.448242187500001E-6,74,41,59,21887,16760400,8250,12520,16756636,9159,1778,5621,Tag0,unknown
1545011468961,0,101,2.2192382812500002E-5,74,41,59,21887,16760400,8250,12520,16756636,9159,1778,5621,Tag0,unknown
1545011468961,0,84,1.8457031250000004E-5,74,41,59,21887,16760400,8250,12520,16756636,9159,1778,5621,Tag0,unknown
1545011468961,0,20,4.39453125E-6,74,41,59,21887,16760400,8250,12520,16756636,9159,1778,5621,Tag0,unknown
1545011468972,0,-285,-6.26220703125E-5,74,41,59,21887,16760400,8250,12520,16756636,9159,1778,5621,Tag0,unknown
1545011468972,0,-284,-6.240234375E-5,74,41,59,21887,16760400,8250,12520,16756636,9159,1778,5621,Tag0,unknown
1545011468972,0,-263,-5.7788085937500005E-5,74,41,59,21887,16760400,8250,12520,16756636,9159,1778,5621,Tag0,unknown
1545011468972,0,7,1.5380859375E-6,74,41,59,21887,16760400,8250,12520,16756636,9159,1778,5621,Tag0,unknown
1545011468972,0,24,5.2734375E-6,74,41,59,21887,16760400,8250,12520,16756636,9159,1778,5621,Tag0,unknown
1545011468973,0,53,1.1645507812500002E-5,74,41,59,21887,16760400,8250,12520,16756636,9159,1778,5621,Tag0,unknown
1545011468974,0,104,2.28515625E-5,74,41,59,21887,16760400,8250,12520,16756636,9159,1778,5621,Tag0,unknown
1545011468988,0,-117,-2.5708007812499998E-5,74,41,59,21887,16760400,8250,12520,16756636,9159,1778,5621,Tag0,unknown
1545011468989,0,119,2.6147460937500004E-5,74,41,59,21887,16760400,8250,12520,16756636,9159,1778,5621,Tag0,unknown
1545011468989,0,68,1.4941406250000001E-5,74,41,59,21887,16760400,8250,12520,16756636,9159,1778,5621,Tag0,unknown
1545011468989,0,50,1.0986328125E-5,74,41,59,21887,16760400,8250,12520,16756636,9159,1778,5621,Tag0,unknown
1545011468990,0,105,2.30712890625E-5,74,41,59,21887,16760400,8250,12520,16756636,9159,1778,5621,Tag0,unknown
1545011468990,0,-68,-1.4941406250000001E-5,74,41,59,21887,16760400,8250,12520,16756636,9159,1778,5621,Tag0,unknown
1545011468990,0,-62,-1.3623046875E-5,74,41,59,21887,16760400,8250,12520,16756636,9159,1778,5621,Tag0,unknown
1545011468993,0,115,2.52685546875E-5,74,41,59,21887,16760400,8250,12520,16756636,9159,1778,5621,Tag0,unknown
1545011468993,0,56,1.23046875E-5,74,41,59,21887,16760400,8250,12520,16756636,9159,1778,5621,Tag0,unknown
1545011469004,0,72,1.58203125E-5,74,41,59,21887,16760400,8250,12520,16756636,9159,1778,5621,Tag0,unknown
1545011469004,0,-128,-2.8125E-5,74,41,59,21887,16760400,8250,12520,16756636,9159,1778,5621,Tag0,unknown
1545011469005,0,-107,-2.35107421875E-5,74,41,59,21887,16760400,8250,12520,16756636,9159,1778,5621,Tag0,unknown
1545011469008,0,123,2.70263671875E-5,61,41,59,523340,16775402,15462,3741,5033,1516,1659,1205,Tag0,unknown
1545011469008,0,98,2.1533203125E-5,61,41,59,523340,16775402,15462,3741,5033,1516,1659,1205,Tag0,unknown
1545011469008,0,112,2.4609375E-5,61,41,59,523340,16775402,15462,3741,5033,1516,1659,1205,Tag0,unknown
1545011469024,0,-93,-2.04345703125E-5,61,41,59,523340,16775402,15462,3741,5033,1516,1659,1205,Tag0,unknown
1545011469024,0,-91,-1.99951171875E-5,61,41,59,523340,16775402,15462,3741,5033,1516,1659,1205,Tag0,unknown
1545011469024,0,91,1.99951171875E-5,61,41,59,523340,16775402,15462,3741,5033,1516,1659,1205,Tag0,unknown
1545011469024,0,17,3.7353515625000003E-6,61,41,59,523340,16775402,15462,3741,5033,1516,1659,1205,Tag0,unknown
1545011469025,0,8,1.7578125E-6,61,41,59,523340,16775402,15462,3741,5033,1516,1659,1205,Tag0,unknown
1545011469027,0,71,1.56005859375E-5,61,41,59,523340,16775402,15462,3741,5033,1516,1659,1205,Tag0,unknown
1545011469028,0,112,2.4609375E-5,61,41,59,523340,16775402,15462,3741,5033,1516,1659,1205,Tag0,unknown
1545011469028,0,77,1.69189453125E-5,61,41,59,523340,16775402,15462,3741,5033,1516,1659,1205,Tag0,unknown
1545011469028,0,37,8.1298828125E-6,61,41,59,523340,16775402,15462,3741,5033,1516,1659,1205,Tag0,unknown
1545011469028,0,55,1.20849609375E-5,61,41,59,523340,16775402,15462,3741,5033,1516,1659,1205,Tag0,unknown
1545011469028,0,121,2.6586914062500003E-5,61,41,59,523340,16775402,15462,3741,5033,1516,1659,1205,Tag0,unknown
1545011469039,0,-107,-2.35107421875E-5,61,41,59,523340,16775402,15462,3741,5033,1516,1659,1205,Tag0,unknown
1545011469040,0,99,2.1752929687500003E-5,61,41,59,523340,16775402,15462,3741,5033,1516,1659,1205,Tag0,unknown
1545011469040,0,35,7.6904296875E-6,61,41,59,523340,16775402,15462,3741,5033,1516,1659,1205,Tag0,unknown
1545011469041,0,28,6.15234375E-6,61,41,59,523340,16775402,15462,3741,5033,1516,1659,1205,Tag0,unknown
1545011469041,0,76,1.669921875E-5,61,41,59,523340,16775402,15462,3741,5033,1516,1659,1205,Tag0,unknown
1545011469041,0,109,2.39501953125E-5,61,41,59,523340,16775402,15462,3741,5033,1516,1659,1205,Tag0,unknown
1545011469041,0,89,1.95556640625E-5,61,41,59,523340,16775402,15462,3741,5033,1516,1659,1205,Tag0,unknown
1545011469041,0,44,9.66796875E-6,61,41,59,523340,16775402,15462,3741,5033,1516,1659,1205,Tag0,unknown
1545011469042,0,36,7.91015625E-6,61,41,59,523340,16775402,15462,3741,5033,1516,1659,1205,Tag0,unknown
1545011469042,0,80,1.7578125E-5,61,41,59,523340,16775402,15462,3741,5033,1516,1659,1205,Tag0,unknown
1545011469055,0,116,2.548828125E-5,61,41,59,523340,16775402,15462,3741,5033,1516,1659,1205,Tag0,unknown
1545011469055,0,92,2.021484375E-5,61,41,59,523340,16775402,15462,3741,5033,1516,1659,1205,Tag0,unknown
1545011469058,0,43,9.448242187500001E-6,61,41,59,523340,16775402,15462,3741,5033,1516,1659,1205,Tag0,unknown
1545011469059,0,33,7.2509765625E-6,61,41,59,523340,16775402,15462,3741,5033,1516,1659,1205,Tag0,unknown
1545011469059,0,85,1.86767578125E-5,61,41,59,523340,16775402,15462,3741,5033,1516,1659,1205,Tag0,unknown
1545011469059,0,-110,-2.4169921875E-5,61,41,59,523340,16775402,15462,3741,5033,1516,1659,1205,Tag0,unknown
1545011469059,0,-127,-2.79052734375E-5,61,41,59,523340,16775402,15462,3741,5033,1516,1659,1205,Tag0,unknown
1545011469073,0,58,1.2744140625E-5,61,41,59,523340,16775402,15462,3741,5033,1516,1659,1205,Tag0,unknown
1545011469073,0,20,4.39453125E-6,61,41,59,523340,16775402,15462,3741,5033,1516,1659,1205,Tag0,unknown
1545011469073,0,51,1.1206054687499999E-5,61,41,59,523340,16775402,15462,3741,5033,1516,1659,1205,Tag0,unknown
1545011469073,0,120,2.63671875E-5,61,41,59,523340,16775402,15462,3741,5033,1516,1659,1205,Tag0,unknown
1545011469074,0,-125,-2.74658203125E-5,61,41,59,523340,16775402,15462,3741,5033,1516,1659,1205,Tag0,unknown
1545011469074,0,73,1.6040039062500002E-5,61,41,59,523340,16775402,15462,3741,5033,1516,1659,1205,Tag0,unknown
1545011469074,0,26,5.712890625E-6,61,41,59,523340,16775402,15462,3741,5033,1516,1659,1205,Tag0,unknown
1545011469074,0,51,1.1206054687499999E-5,61,41,59,523340,16775402,15462,3741,5033,1516,1659,1205,Tag0,unknown
1545011469075,0,107,2.35107421875E-5,61,41,59,523340,16775402,15462,3741,5033,1516,1659,1205,Tag0,unknown
1545011469088,0,113,2.48291015625E-5,61,41,59,523340,16775402,15462,3741,5033,1516,1659,1205,Tag0,unknown
1545011469089,0,61,1.34033203125E-5,61,41,59,523340,16775402,15462,3741,5033,1516,1659,1205,Tag0,unknown
1545011469089,0,21,4.614257812500001E-6,61,41,59,523340,16775402,15462,3741,5033,1516,1659,1205,Tag0,unknown
1545011469089,0,38,8.349609375E-6,61,41,59,523340,16775402,15462,3741,5033,1516,1659,1205,Tag0,unknown
1545011469092,0,93,2.04345703125E-5,61,41,59,523340,16775402,15462,3741,5033,1516,1659,1205,Tag0,unknown
1545011469092,0,100,2.197265625E-5,61,41,59,523340,16775402,15462,3741,5033,1516,1659,1205,Tag0,unknown
1545011469092,0,51,1.1206054687499999E-5,61,41,59,523340,16775402,15462,3741,5033,1516,1659,1205,Tag0,unknown
1545011469092,0,16,3.515625E-6,61,41,59,523340,16775402,15462,3741,5033,1516,1659,1205,Tag0,unknown
1545011469104,0,44,9.66796875E-6,61,41,59,523340,16775402,15462,3741,5033,1516,1659,1205,Tag0,unknown
1545011469104,0,119,2.6147460937500004E-5,61,41,59,523340,16775402,15462,3741,5033,1516,1659,1205,Tag0,unknown
1545011469104,0,-111,-2.43896484375E-5,61,41,59,523340,16775402,15462,3741,5033,1516,1659,1205,Tag0,unknown
1545011469105,0,89,1.95556640625E-5,61,41,59,523340,16775402,15462,3741,5033,1516,1659,1205,Tag0,unknown
1545011469105,0,33,7.2509765625E-6,61,41,59,523340,16775402,15462,3741,5033,1516,1659,1205,Tag0,unknown
1545011469105,0,39,8.5693359375E-6,61,41,59,523340,16775402,15462,3741,5033,1516,1659,1205,Tag0,unknown
1545011469105,0,101,2.2192382812500002E-5,61,41,59,523340,16775402,15462,3741,5033,1516,1659,1205,Tag0,unknown
1545011469105,0,124,2.724609375E-5,61,41,59,523340,16775402,15462,3741,5033,1516,1659,1205,Tag0,unknown
1545011469123,0,81,1.77978515625E-5,61,41,59,523340,16775402,15462,3741,5033,1516,1659,1205,Tag0,unknown
1545011469124,0,35,7.6904296875E-6,61,41,59,523340,16775402,15462,3741,5033,1516,1659,1205,Tag0,unknown
1545011469124,0,42,9.228515625000002E-6,61,41,59,523340,16775402,15462,3741,5033,1516,1659,1205,Tag0,unknown
1545011469127,0,104,2.28515625E-5,61,41,59,523340,16775402,15462,3741,5033,1516,1659,1205,Tag0,unknown
1545011469127,0,-108,-2.3730468750000002E-5,61,41,59,523340,16775402,15462,3741,5033,1516,1659,1205,Tag0,unknown
1545011469128,0,109,2.39501953125E-5,61,41,59,523340,16775402,15462,3741,5033,1516,1659,1205,Tag0,unknown
1545011469137,0,28,6.15234375E-6,61,41,59,523340,16775402,15462,3741,5033,1516,1659,1205,Tag0,unknown
1545011469138,0,3,6.591796875E-7,61,41,59,523340,16775402,15462,3741,5033,1516,1659,1205,Tag0,unknown
1545011469138,0,54,1.1865234375000001E-5,61,41,59,523340,16775402,15462,3741,5033,1516,1659,1205,Tag0,unknown
1545011469138,0,105,2.30712890625E-5,61,41,59,523340,16775402,15462,3741,5033,1516,1659,1205,Tag0,unknown
1545011469139,0,81,1.77978515625E-5,61,41,59,523340,16775402,15462,3741,5033,1516,1659,1205,Tag0,unknown
1545011469139,0,17,3.7353515625000003E-6,61,41,59,523340,16775402,15462,3741,5033,1516,1659,1205,Tag0,unknown
1545011469139,0,-260,-5.712890625E-5,61,41,59,523340,16775402,15462,3741,5033,1516,1659,1205,Tag0,unknown
1545011469139,0,39,8.5693359375E-6,61,41,59,523340,16775402,15462,3741,5033,1516,1659,1205,Tag0,unknown
1545011469139,0,93,2.04345703125E-5,61,41,59,523340,16775402,15462,3741,5033,1516,1659,1205,Tag0,unknown
1545011469141,0,75,1.64794921875E-5,61,41,59,523340,16775402,15462,3741,5033,1516,1659,1205,Tag0,unknown
1545011469142,0,17,3.7353515625000003E-6,61,41,59,523340,16775402,15462,3741,5033,1516,1659,1205,Tag0,unknown
1545011469156,0,9,1.9775390625E-6,61,41,59,523340,16775402,15462,3741,5033,1516,1659,1205,Tag0,unknown
1545011469157,0,71,1.56005859375E-5,61,41,59,523340,16775402,15462,3741,5033,1516,1659,1205,Tag0,unknown
1545011469157,0,-124,-2.724609375E-5,61,41,59,523340,16775402,15462,3741,5033,1516,1659,1205,Tag0,unknown
1545011469157,0,120,2.63671875E-5,61,41,59,523340,16775402,15462,3741,5033,1516,1659,1205,Tag0,unknown
1545011469157,0,75,1.64794921875E-5,61,41,59,523340,16775402,15462,3741,5033,1516,1659,1205,Tag0,unknown
1545011469157,0,61,1.34033203125E-5,61,41,59,523340,16775402,15462,3741,5033,1516,1659,1205,Tag0,unknown
1545011469160,0,108,2.3730468750000002E-5,61,41,59,523340,16775402,15462,3741,5033,1516,1659,1205,Tag0,unknown
1545011469161,0,-92,-2.021484375E-5,61,41,59,523340,16775402,15462,3741,5033,1516,1659,1205,Tag0,unknown
1545011469161,0,-103,-2.26318359375E-5,61,41,59,523340,16775402,15462,3741,5033,1516,1659,1205,Tag0,unknown
1545011469161,0,89,1.95556640625E-5,61,41,59,523340,16775402,15462,3741,5033,1516,1659,1205,Tag0,unknown
1545011469171,0,41,9.008789062499999E-6,61,41,59,523340,16775402,15462,3741,5033,1516,1659,1205,Tag0,unknown
1545011469171,0,61,1.34033203125E-5,61,41,59,523340,16775402,15462,3741,5033,1516,1659,1205,Tag0,unknown
1545011469171,0,-128,-2.8125E-5,61,41,59,523340,16775402,15462,3741,5033,1516,1659,1205,Tag0,unknown
1545011469172,0,-119,-2.6147460937500004E-5,61,41,59,523340,16775402,15462,3741,5033,1516,1659,1205,Tag0,unknown
1545011469172,0,83,1.82373046875E-5,61,41,59,523340,16775402,15462,3741,5033,1516,1659,1205,Tag0,unknown
1545011469172,0,38,8.349609375E-6,61,41,59,523340,16775402,15462,3741,5033,1516,1659,1205,Tag0,unknown
1545011469172,0,66,1.4501953125E-5,61,41,59,523340,16775402,15462,3741,5033,1516,1659,1205,Tag0,unknown
1545011469190,0,-121,-2.6586914062500003E-5,61,41,59,523340,16775402,15462,3741,5033,1516,1659,1205,Tag0,unknown
1545011469190,0,-93,-2.04345703125E-5,61,41,59,523340,16775402,15462,3741,5033,1516,1659,1205,Tag0,unknown
1545011469190,0,118,2.5927734375E-5,61,41,59,523340,16775402,15462,3741,5033,1516,1659,1205,Tag0,unknown
1545011469191,0,67,1.4721679687500002E-5,61,41,59,523340,16775402,15462,3741,5033,1516,1659,1205,Tag0,unknown
1545011469192,0,74,1.6259765625E-5,61,41,59,523340,16775402,15462,3741,5033,1516,1659,1205,Tag0,unknown
1545011469192,0,-117,-2.5708007812499998E-5,61,41,59,523340,16775402,15462,3741,5033,1516,1659,1205,Tag0,unknown
1545011469192,0,-90,-1.9775390625E-5,61,41,59,523340,16775402,15462,3741,5033,1516,1659,1205,Tag0,unknown
1545011469193,0,114,2.5048828125000003E-5,61,41,59,523340,16775402,15462,3741,5033,1516,1659,1205,Tag0,unknown
1545011469193,0,55,1.20849609375E-5,61,41,59,523340,16775402,15462,3741,5033,1516,1659,1205,Tag0,unknown
1545011469193,0,61,1.34033203125E-5,61,41,59,523340,16775402,15462,3741,5033,1516,1659,1205,Tag0,unknown
1545011469207,0,117,2.5708007812499998E-5,61,41,59,523340,16775402,15462,3741,5033,1516,1659,1205,Tag0,unknown
1545011469208,0,-105,-2.30712890625E-5,61,41,59,523340,16775402,15462,3741,5033,1516,1659,1205,Tag0,unknown
1545011469211,0,124,2.724609375E-5,61,41,59,523340,16775402,15462,3741,5033,1516,1659,1205,Tag0,unknown
1545011469211,0,58,1.2744140625E-5,61,41,59,523340,16775402,15462,3741,5033,1516,1659,1205,Tag0,unknown
1545011469211,0,34,7.4707031250000005E-6,61,41,59,523340,16775402,15462,3741,5033,1516,1659,1205,Tag0,unknown
1545011469211,0,87,1.91162109375E-5,61,41,59,523340,16775402,15462,3741,5033,1516,1659,1205,Tag0,unknown
1545011469211,0,-127,-2.79052734375E-5,61,41,59,523340,16775402,15462,3741,5033,1516,1659,1205,Tag0,unknown
1545011469211,0,90,1.9775390625E-5,61,41,59,523340,16775402,15462,3741,5033,1516,1659,1205,Tag0,unknown
1545011469212,0,32,7.03125E-6,61,41,59,523340,16775402,15462,3741,5033,1516,1659,1205,Tag0,unknown
1545011469224,0,24,5.2734375E-6,61,41,59,523340,16775402,15462,3741,5033,1516,1659,1205,Tag0,unknown
1545011469225,0,76,1.669921875E-5,61,41,59,523340,16775402,15462,3741,5033,1516,1659,1205,Tag0,unknown
1545011469225,0,120,2.63671875E-5,61,41,59,523340,16775402,15462,3741,5033,1516,1659,1205,Tag0,unknown
1545011469225,0,97,2.13134765625E-5,61,41,59,523340,16775402,15462,3741,5033,1516,1659,1205,Tag0,unknown
1545011469225,0,35,7.6904296875E-6,61,41,59,523340,16775402,15462,3741,5033,1516,1659,1205,Tag0,unknown
1545011469226,0,6,1.318359375E-6,61,41,59,523340,16775402,15462,3741,5033,1516,1659,1205,Tag0,unknown
1545011469226,0,59,1.29638671875E-5,61,41,59,523340,16775402,15462,3741,5033,1516,1659,1205,Tag0,unknown
1545011469226,0,122,2.6806640625E-5,61,41,59,523340,16775402,15462,3741,5033,1516,1659,1205,Tag0,unknown
1545011469241,0,104,2.28515625E-5,61,41,59,523340,16775402,15462,3741,5033,1516,1659,1205,Tag0,unknown
1545011469241,0,36,7.91015625E-6,61,41,59,523340,16775402,15462,3741,5033,1516,1659,1205,Tag0,unknown
1545011469241,0,1,2.197265625E-7,61,41,59,523340,16775402,15462,3741,5033,1516,1659,1205,Tag0,unknown
1545011469241,0,45,9.8876953125E-6,61,41,59,523340,16775402,15462,3741,5033,1516,1659,1205,Tag0,unknown
1545011469241,0,103,2.26318359375E-5,61,41,59,523340,16775402,15462,3741,5033,1516,1659,1205,Tag0,unknown
1545011469245,0,98,2.1533203125E-5,61,41,59,523340,16775402,15462,3741,5033,1516,1659,1205,Tag0,unknown
1545011469245,0,36,7.91015625E-6,61,41,59,523340,16775402,15462,3741,5033,1516,1659,1205,Tag0,unknown
1545011469245,0,-257,-5.64697265625E-5,61,41,59,523340,16775402,15462,3741,5033,1516,1659,1205,Tag0,unknown
1545011469245,0,28,6.15234375E-6,61,41,59,523340,16775402,15462,3741,5033,1516,1659,1205,Tag0,unknown
1545011469255,0,88,1.93359375E-5,61,41,59,523340,16775402,15462,3741,5033,1516,1659,1205,Tag0,unknown
1545011469255,0,98,2.1533203125E-5,61,41,59,523340,16775402,15462,3741,5033,1516,1659,1205,Tag0,unknown
1545011469255,0,54,1.1865234375000001E-5,61,41,59,523340,16775402,15462,3741,5033,1516,1659,1205,Tag0,unknown
1545011469255,0,12,2.63671875E-6,61,41,59,523340,16775402,15462,3741,5033,1516,1659,1205,Tag0,unknown
1545011469255,0,23,5.0537109375E-6,61,41,59,523340,16775402,15462,3741,5033,1516,1659,1205,Tag0,unknown
1545011469256,0,86,1.8896484375000003E-5,61,41,59,523340,16775402,15462,3741,5033,1516,1659,1205,Tag0,unknown
1545011469256,0,115,2.52685546875E-5,61,41,59,523340,16775402,15462,3741,5033,1516,1659,1205,Tag0,unknown
1545011469272,0,67,1.4721679687500002E-5,61,41,59,523340,16775402,15462,3741,5033,1516,1659,1205,Tag0,unknown
1545011469272,0,5,1.0986328125E-6,61,41,59,523340,16775402,15462,3741,5033,1516,1659,1205,Tag0,unknown
1545011469273,0,13,2.8564453125E-6,61,41,59,523340,16775402,15462,3741,5033,1516,1659,1205,Tag0,unknown
1545011469273,0,85,1.86767578125E-5,61,41,59,523340,16775402,15462,3741,5033,1516,1659,1205,Tag0,unknown
1545011469273,0,-128,-2.8125E-5,61,41,59,523340,16775402,15462,3741,5033,1516,1659,1205,Tag0,unknown
1545011469273,0,98,2.1533203125E-5,61,41,59,523340,16775402,15462,3741,5033,1516,1659,1205,Tag0,unknown
1545011469273,0,54,1.1865234375000001E-5,61,41,59,523340,16775402,15462,3741,5033,1516,1659,1205,Tag0,unknown
1545011469276,0,68,1.4941406250000001E-5,61,41,59,523340,16775402,15462,3741,5033,1516,1659,1205,Tag0,unknown
1545011469276,0,-126,-2.7685546875E-5,61,41,59,523340,16775402,15462,3741,5033,1516,1659,1205,Tag0,unknown
1545011469296,0,-107,-2.35107421875E-5,61,41,59,523340,16775402,15462,3741,5033,1516,1659,1205,Tag0,unknown
1545011469307,0,102,2.2412109374999998E-5,61,41,59,523340,16775402,15462,3741,5033,1516,1659,1205,Tag0,unknown
1545011469310,0,50,1.0986328125E-5,61,41,59,523340,16775402,15462,3741,5033,1516,1659,1205,Tag0,unknown
1545011469311,0,53,1.1645507812500002E-5,61,41,59,523340,16775402,15462,3741,5033,1516,1659,1205,Tag0,unknown
1545011469311,0,101,2.2192382812500002E-5,61,41,59,523340,16775402,15462,3741,5033,1516,1659,1205,Tag0,unknown
1545011469311,0,-125,-2.74658203125E-5,61,41,59,523340,16775402,15462,3741,5033,1516,1659,1205,Tag0,unknown
1545011469311,0,90,1.9775390625E-5,61,41,59,523340,16775402,15462,3741,5033,1516,1659,1205,Tag0,unknown
1545011469311,0,21,4.614257812500001E-6,61,41,59,523340,16775402,15462,3741,5033,1516,1659,1205,Tag0,unknown
1545011469312,0,-260,-5.712890625E-5,61,41,59,523340,16775402,15462,3741,5033,1516,1659,1205,Tag0,unknown
1545011469324,0,41,9.008789062499999E-6,61,41,59,523340,16775402,15462,3741,5033,1516,1659,1205,Tag0,unknown
1545011469324,0,87,1.91162109375E-5,61,41,59,523340,16775402,15462,3741,5033,1516,1659,1205,Tag0,unknown
1545011469324,0,60,1.318359375E-5,61,41,59,523340,16775402,15462,3741,5033,1516,1659,1205,Tag0,unknown
1545011469325,0,-261,-5.73486328125E-5,61,41,59,523340,16775402,15462,3741,5033,1516,1659,1205,Tag0,unknown
1545011469325,0,-294,-6.4599609375E-5,61,41,59,523340,16775402,15462,3741,5033,1516,1659,1205,Tag0,unknown
1545011469325,0,-259,-5.69091796875E-5,61,41,59,523340,16775402,15462,3741,5033,1516,1659,1205,Tag0,unknown
1545011469325,0,48,1.0546875E-5,61,41,59,523340,16775402,15462,3741,5033,1516,1659,1205,Tag0,unknown
1545011469325,0,34,7.4707031250000005E-6,61,41,59,523340,16775402,15462,3741,5033,1516,1659,1205,Tag0,unknown
1545011469326,0,-278,-6.108398437500001E-5,61,41,59,523340,16775402,15462,3741,5033,1516,1659,1205,Tag0,unknown
1545011469326,0,-302,-6.6357421875E-5,61,41,59,523340,16775402,15462,3741,5033,1516,1659,1205,Tag0,unknown
1545011469326,0,1,2.197265625E-7,61,41,59,523340,16775402,15462,3741,5033,1516,1659,1205,Tag0,unknown
1545011469326,0,75,1.64794921875E-5,61,41,59,523340,16775402,15462,3741,5033,1516,1659,1205,Tag0,unknown
1545011469327,0,81,1.77978515625E-5,61,41,59,523340,16775402,15462,3741,5033,1516,1659,1205,Tag0,unknown
1545011469327,0,17,3.7353515625000003E-6,61,41,59,523340,16775402,15462,3741,5033,1516,1659,1205,Tag0,unknown
1545011469327,0,-278,-6.108398437500001E-5,61,41,59,523340,16775402,15462,3741,5033,1516,1659,1205,Tag0,unknown
1545011469327,0,7,1.5380859375E-6,61,41,59,523340,16775402,15462,3741,5033,1516,1659,1205,Tag0,unknown
1545011469327,0,70,1.5380859375E-5,61,41,59,523340,16775402,15462,3741,5033,1516,1659,1205,Tag0,unknown
1545011469327,0,75,1.64794921875E-5,61,41,59,523340,16775402,15462,3741,5033,1516,1659,1205,Tag0,unknown
1545011469342,0,19,4.1748046875E-6,61,41,59,523340,16775402,15462,3741,5033,1516,1659,1205,Tag0,unknown
1545011469342,0,-283,-6.218261718750001E-5,61,41,59,523340,16775402,15462,3741,5033,1516,1659,1205,Tag0,unknown
1545011469343,0,-261,-5.73486328125E-5,61,41,59,523340,16775402,15462,3741,5033,1516,1659,1205,Tag0,unknown
1545011469345,0,60,1.318359375E-5,61,41,59,523340,16775402,15462,3741,5033,1516,1659,1205,Tag0,unknown
1545011469346,0,74,1.6259765625E-5,61,41,59,523340,16775402,15462,3741,5033,1516,1659,1205,Tag0,unknown
1545011469346,0,21,4.614257812500001E-6,61,41,59,523340,16775402,15462,3741,5033,1516,1659,1205,Tag0,unknown
1545011469346,0,-279,-6.13037109375E-5,61,41,59,523340,16775402,15462,3741,5033,1516,1659,1205,Tag0,unknown
1545011469346,0,1,2.197265625E-7,61,41,59,523340,16775402,15462,3741,5033,1516,1659,1205,Tag0,unknown
1545011469358,0,69,1.51611328125E-5,61,41,59,523340,16775402,15462,3741,5033,1516,1659,1205,Tag0,unknown
1545011469358,0,87,1.91162109375E-5,61,41,59,523340,16775402,15462,3741,5033,1516,1659,1205,Tag0,unknown
1545011469358,0,43,9.448242187500001E-6,61,41,59,523340,16775402,15462,3741,5033,1516,1659,1205,Tag0,unknown
1545011469358,0,3,6.591796875E-7,61,41,59,523340,16775402,15462,3741,5033,1516,1659,1205,Tag0,unknown
1545011469359,0,21,4.614257812500001E-6,61,41,59,523340,16775402,15462,3741,5033,1516,1659,1205,Tag0,unknown
1545011469359,0,81,1.77978515625E-5,61,41,59,523340,16775402,15462,3741,5033,1516,1659,1205,Tag0,unknown
1545011469359,0,105,2.30712890625E-5,61,41,59,523340,16775402,15462,3741,5033,1516,1659,1205,Tag0,unknown
1545011469359,0,64,1.40625E-5,61,41,59,523340,16775402,15462,3741,5033,1516,1659,1205,Tag0,unknown
1545011469372,0,7,1.5380859375E-6,61,41,59,523340,16775402,15462,3741,5033,1516,1659,1205,Tag0,unknown
1545011469372,0,1,2.197265625E-7,61,41,59,523340,16775402,15462,3741,5033,1516,1659,1205,Tag0,unknown
1545011469372,0,53,1.1645507812500002E-5,61,41,59,523340,16775402,15462,3741,5033,1516,1659,1205,Tag0,unknown
1545011469372,0,89,1.95556640625E-5,61,41,59,523340,16775402,15462,3741,5033,1516,1659,1205,Tag0,unknown
1545011469373,0,64,1.40625E-5,61,41,59,523340,16775402,15462,3741,5033,1516,1659,1205,Tag0,unknown
1545011469373,0,13,2.8564453125E-6,61,41,59,523340,16775402,15462,3741,5033,1516,1659,1205,Tag0,unknown
1545011469376,0,7,1.5380859375E-6,61,41,59,523340,16775402,15462,3741,5033,1516,1659,1205,Tag0,unknown
1545011469376,0,60,1.318359375E-5,61,41,59,523340,16775402,15462,3741,5033,1516,1659,1205,Tag0,unknown
1545011469388,0,113,2.48291015625E-5,61,41,59,523340,16775402,15462,3741,5033,1516,1659,1205,Tag0,unknown
1545011469388,0,92,2.021484375E-5,61,41,59,523340,16775402,15462,3741,5033,1516,1659,1205,Tag0,unknown
1545011469388,0,50,1.0986328125E-5,61,41,59,523340,16775402,15462,3741,5033,1516,1659,1205,Tag0,unknown
1545011469389,0,45,9.8876953125E-6,61,41,59,523340,16775402,15462,3741,5033,1516,1659,1205,Tag0,unknown
1545011469389,0,99,2.1752929687500003E-5,61,41,59,523340,16775402,15462,3741,5033,1516,1659,1205,Tag0,unknown
1545011469389,0,-112,-2.4609375E-5,61,41,59,523340,16775402,15462,3741,5033,1516,1659,1205,Tag0,unknown
1545011469389,0,114,2.5048828125000003E-5,61,41,59,523340,16775402,15462,3741,5033,1516,1659,1205,Tag0,unknown
1545011469390,0,42,9.228515625000002E-6,61,41,59,523340,16775402,15462,3741,5033,1516,1659,1205,Tag0,unknown
1545011469390,0,11,2.4169921875E-6,61,41,59,523340,16775402,15462,3741,5033,1516,1659,1205,Tag0,unknown
1545011469408,0,58,1.2744140625E-5,61,41,59,523340,16775402,15462,3741,5033,1516,1659,1205,Tag0,unknown
1545011469408,0,119,2.6147460937500004E-5,61,41,59,523340,16775402,15462,3741,5033,1516,1659,1205,Tag0,unknown
1545011469408,0,109,2.39501953125E-5,61,41,59,523340,16775402,15462,3741,5033,1516,1659,1205,Tag0,unknown
1545011469411,0,43,9.448242187500001E-6,61,41,59,523340,16775402,15462,3741,5033,1516,1659,1205,Tag0,unknown
1545011469412,0,-259,-5.69091796875E-5,61,41,59,523340,16775402,15462,3741,5033,1516,1659,1205,Tag0,unknown
1545011469412,0,23,5.0537109375E-6,61,41,59,523340,16775402,15462,3741,5033,1516,1659,1205,Tag0,unknown
1545011469412,0,91,1.99951171875E-5,61,41,59,523340,16775402,15462,3741,5033,1516,1659,1205,Tag0,unknown
1545011469412,0,101,2.2192382812500002E-5,61,41,59,523340,16775402,15462,3741,5033,1516,1659,1205,Tag0,unknown
1545011469412,0,55,1.20849609375E-5,61,41,59,523340,16775402,15462,3741,5033,1516,1659,1205,Tag0,unknown
1545011469412,0,27,5.9326171875000005E-6,61,41,59,523340,16775402,15462,3741,5033,1516,1659,1205,Tag0,unknown
1545011469421,0,60,1.318359375E-5,61,41,59,523340,16775402,15462,3741,5033,1516,1659,1205,Tag0,unknown
1545011469422,0,113,2.48291015625E-5,61,41,59,523340,16775402,15462,3741,5033,1516,1659,1205,Tag0,unknown
1545011469422,0,109,2.39501953125E-5,61,41,59,523340,16775402,15462,3741,5033,1516,1659,1205,Tag0,unknown
1545011469422,0,65,1.42822265625E-5,61,41,59,523340,16775402,15462,3741,5033,1516,1659,1205,Tag0,unknown
1545011469422,0,22,4.833984375E-6,61,41,59,523340,16775402,15462,3741,5033,1516,1659,1205,Tag0,unknown
1545011469422,0,29,6.3720703125E-6,61,41,59,523340,16775402,15462,3741,5033,1516,1659,1205,Tag0,unknown
1545011469423,0,83,1.82373046875E-5,61,41,59,523340,16775402,15462,3741,5033,1516,1659,1205,Tag0,unknown
1545011469437,0,100,2.197265625E-5,61,41,59,523340,16775402,15462,3741,5033,1516,1659,1205,Tag0,unknown
1545011469438,0,59,1.29638671875E-5,61,41,59,523340,16775402,15462,3741,5033,1516,1659,1205,Tag0,unknown
1545011469438,0,18,3.955078125E-6,61,41,59,523340,16775402,15462,3741,5033,1516,1659,1205,Tag0,unknown
1545011469439,0,32,7.03125E-6,61,41,59,523340,16775402,15462,3741,5033,1516,1659,1205,Tag0,unknown
1545011469439,0,97,2.13134765625E-5,61,41,59,523340,16775402,15462,3741,5033,1516,1659,1205,Tag0,unknown
1545011469442,0,123,2.70263671875E-5,61,41,59,523340,16775402,15462,3741,5033,1516,1659,1205,Tag0,unknown
1545011469442,0,76,1.669921875E-5,61,41,59,523340,16775402,15462,3741,5033,1516,1659,1205,Tag0,unknown
1545011469443,0,22,4.833984375E-6,61,41,59,523340,16775402,15462,3741,5033,1516,1659,1205,Tag0,unknown
1545011469456,0,24,5.2734375E-6,61,41,59,523340,16775402,15462,3741,5033,1516,1659,1205,Tag0,unknown
1545011469456,0,77,1.69189453125E-5,61,41,59,523340,16775402,15462,3741,5033,1516,1659,1205,Tag0,unknown
1545011469457,0,117,2.5708007812499998E-5,61,41,59,523340,16775402,15462,3741,5033,1516,1659,1205,Tag0,unknown
1545011469457,0,90,1.9775390625E-5,61,41,59,523340,16775402,15462,3741,5033,1516,1659,1205,Tag0,unknown
1545011469457,0,25,5.4931640625E-6,61,41,59,523340,16775402,15462,3741,5033,1516,1659,1205,Tag0,unknown
1545011469457,0,4,8.7890625E-7,61,41,59,523340,16775402,15462,3741,5033,1516,1659,1205,Tag0,unknown
1545011469457,0,55,1.20849609375E-5,61,41,59,523340,16775402,15462,3741,5033,1516,1659,1205,Tag0,unknown
1545011469458,0,105,2.30712890625E-5,61,41,59,523340,16775402,15462,3741,5033,1516,1659,1205,Tag0,unknown
1545011469458,0,88,1.93359375E-5,61,41,59,523340,16775402,15462,3741,5033,1516,1659,1205,Tag0,unknown
1545011469472,0,33,7.2509765625E-6,61,41,59,523340,16775402,15462,3741,5033,1516,1659,1205,Tag0,unknown
1545011469472,0,16,3.515625E-6,61,41,59,523340,16775402,15462,3741,5033,1516,1659,1205,Tag0,unknown
1545011469472,0,65,1.42822265625E-5,61,41,59,523340,16775402,15462,3741,5033,1516,1659,1205,Tag0,unknown
1545011469472,0,118,2.5927734375E-5,61,41,59,523340,16775402,15462,3741,5033,1516,1659,1205,Tag0,unknown
1545011469473,0,97,2.13134765625E-5,61,41,59,523340,16775402,15462,3741,5033,1516,1659,1205,Tag0,unknown
1545011469476,0,26,5.712890625E-6,61,41,59,523340,16775402,15462,3741,5033,1516,1659,1205,Tag0,unknown
1545011469476,0,4,8.7890625E-7,61,41,59,523340,16775402,15462,3741,5033,1516,1659,1205,Tag0,unknown
1545011469477,0,60,1.318359375E-5,61,41,59,523340,16775402,15462,3741,5033,1516,1659,1205,Tag0,unknown
1545011469487,0,-121,-2.6586914062500003E-5,61,41,59,523340,16775402,15462,3741,5033,1516,1659,1205,Tag0,unknown
1545011469488,0,-120,-2.63671875E-5,61,41,59,523340,16775402,15462,3741,5033,1516,1659,1205,Tag0,unknown
1545011469488,0,73,1.6040039062500002E-5,61,41,59,523340,16775402,15462,3741,5033,1516,1659,1205,Tag0,unknown
1545011469488,0,28,6.15234375E-6,61,41,59,523340,16775402,15462,3741,5033,1516,1659,1205,Tag0,unknown
1545011469488,0,55,1.20849609375E-5,61,41,59,523340,16775402,15462,3741,5033,1516,1659,1205,Tag0,unknown
1545011469488,0,114,2.5048828125000003E-5,61,41,59,523340,16775402,15462,3741,5033,1516,1659,1205,Tag0,unknown
1545011469489,0,119,2.6147460937500004E-5,61,41,59,523340,16775402,15462,3741,5033,1516,1659,1205,Tag0,unknown
1545011469489,0,74,1.6259765625E-5,61,41,59,523340,16775402,15462,3741,5033,1516,1659,1205,Tag0,unknown
1545011469506,0,41,9.008789062499999E-6,61,41,59,523340,16775402,15462,3741,5033,1516,1659,1205,Tag0,unknown
1545011469506,0,60,1.318359375E-5,61,41,59,523340,16775402,15462,3741,5033,1516,1659,1205,Tag0,unknown
1545011469507,0,115,2.52685546875E-5,61,41,59,523340,16775402,15462,3741,5033,1516,1659,1205,Tag0,unknown
1545011469507,0,123,2.70263671875E-5,61,41,59,523340,16775402,15462,3741,5033,1516,1659,1205,Tag0,unknown
1545011469507,0,71,1.56005859375E-5,61,41,59,523340,16775402,15462,3741,5033,1516,1659,1205,Tag0,unknown
1545011469512,0,26,5.712890625E-6,61,41,59,523340,16775402,15462,3741,5033,1516,1659,1205,Tag0,unknown
1545011469512,0,55,1.20849609375E-5,61,41,59,523340,16775402,15462,3741,5033,1516,1659,1205,Tag0,unknown
1545011469512,0,-127,-2.79052734375E-5,61,41,59,523340,16775402,15462,3741,5033,1516,1659,1205,Tag0,unknown
1545011469512,0,-116,-2.548828125E-5,61,41,59,523340,16775402,15462,3741,5033,1516,1659,1205,Tag0,unknown
1545011469512,0,82,1.8017578124999998E-5,61,41,59,523340,16775402,15462,3741,5033,1516,1659,1205,Tag0,unknown
1545011469525,0,37,8.1298828125E-6,61,41,59,523340,16775402,15462,3741,5033,1516,1659,1205,Tag0,unknown
1545011469526,0,68,1.4941406250000001E-5,61,41,59,523340,16775402,15462,3741,5033,1516,1659,1205,Tag0,unknown
1545011469526,0,-122,-2.6806640625E-5,61,41,59,523340,16775402,15462,3741,5033,1516,1659,1205,Tag0,unknown
1545011469526,0,-106,-2.3291015625000003E-5,61,41,59,523340,16775402,15462,3741,5033,1516,1659,1205,Tag0,unknown
1545011469526,0,91,1.99951171875E-5,61,41,59,523340,16775402,15462,3741,5033,1516,1659,1205,Tag0,unknown
1545011469527,0,35,7.6904296875E-6,61,41,59,523340,16775402,15462,3741,5033,1516,1659,1205,Tag0,unknown
1545011469527,0,41,9.008789062499999E-6,61,41,59,523340,16775402,15462,3741,5033,1516,1659,1205,Tag0,unknown
1545011469527,0,84,1.8457031250000004E-5,61,41,59,523340,16775402,15462,3741,5033,1516,1659,1205,Tag0,unknown
