timestampMs,poorSignal,eegRawValue,eegRawValueVolts,attention,meditation,blinkStrength,delta,theta,alphaLow,alphaHigh,betaLow,betaHigh,gammaLow,gammaMid,tagEvent,location
1545074423384,0,88,1.93359375E-5,56,38,56,3784,67335,19474,16756608,134782,11901,8498,1839,Tag0,unknown
1545074423384,0,65,1.42822265625E-5,56,38,56,3784,67335,19474,16756608,134782,11901,8498,1839,Tag0,unknown
1545074423384,0,75,1.64794921875E-5,56,38,56,3784,67335,19474,16756608,134782,11901,8498,1839,Tag0,unknown
1545074423384,0,105,2.30712890625E-5,56,38,56,3784,67335,19474,16756608,134782,11901,8498,1839,Tag0,unknown
1545074423384,0,-123,-2.70263671875E-5,56,38,56,3784,67335,19474,16756608,134782,11901,8498,1839,Tag0,unknown
1545074423385,0,123,2.70263671875E-5,56,38,56,3784,67335,19474,16756608,134782,11901,8498,1839,Tag0,unknown
1545074423385,0,93,2.04345703125E-5,56,38,56,3784,67335,19474,16756608,134782,11901,8498,1839,Tag0,unknown
1545074423385,0,86,1.8896484375000003E-5,56,38,56,3784,67335,19474,16756608,134782,11901,8498,1839,Tag0,unknown
1545074423385,0,104,2.28515625E-5,56,38,56,3784,67335,19474,16756608,134782,11901,8498,1839,Tag0,unknown
1545074423385,0,117,2.5708007812499998E-5,56,38,56,3784,67335,19474,16756608,134782,11901,8498,1839,Tag0,unknown
1545074423385,0,97,2.13134765625E-5,56,38,56,3784,67335,19474,16756608,134782,11901,8498,1839,Tag0,unknown
1545074423385,0,49,1.07666015625E-5,56,38,56,3784,67335,19474,16756608,134782,11901,8498,1839,Tag0,unknown
1545074423385,0,21,4.614257812500001E-6,56,38,56,3784,67335,19474,16756608,134782,11901,8498,1839,Tag0,unknown
1545074423385,0,33,7.2509765625E-6,56,38,56,3784,67335,19474,16756608,134782,11901,8498,1839,Tag0,unknown
1545074423386,0,49,1.07666015625E-5,56,38,56,3784,67335,19474,16756608,134782,11901,8498,1839,Tag0,unknown
1545074423386,0,35,7.6904296875E-6,56,38,56,3784,67335,19474,16756608,134782,11901,8498,1839,Tag0,unknown
1545074423386,0,0,0.0,56,38,56,3784,67335,19474,16756608,134782,11901,8498,1839,Tag0,unknown
1545074423386,0,-269,-5.9106445312499996E-5,56,38,56,3784,67335,19474,16756608,134782,11901,8498,1839,Tag0,unknown
1545074423386,0,17,3.7353515625000003E-6,56,38,56,3784,67335,19474,16756608,134782,11901,8498,1839,Tag0,unknown
1545074423386,0,53,1.1645507812500002E-5,56,38,56,3784,67335,19474,16756608,134782,11901,8498,1839,Tag0,unknown
1545074423386,0,34,7.4707031250000005E-6,56,38,56,3784,67335,19474,16756608,134782,11901,8498,1839,Tag0,unknown
1545074423386,0,-285,-6.26220703125E-5,56,38,56,3784,67335,19474,16756608,134782,11901,8498,1839,Tag0,unknown
1545074423387,0,-315,-6.92138671875E-5,56,38,56,3784,67335,19474,16756608,134782,11901,8498,1839,Tag0,unknown
1545074423387,0,-263,-5.7788085937500005E-5,56,38,56,3784,67335,19474,16756608,134782,11901,8498,1839,Tag0,unknown
1545074423387,0,67,1.4721679687500002E-5,56,38,56,3784,67335,19474,16756608,134782,11901,8498,1839,Tag0,unknown
1545074423387,0,91,1.99951171875E-5,56,38,56,3784,67335,19474,16756608,134782,11901,8498,1839,Tag0,unknown
1545074423387,0,77,1.69189453125E-5,56,38,56,3784,67335,19474,16756608,134782,11901,8498,1839,Tag0,unknown
1545074423394,0,66,1.4501953125E-5,56,38,56,3784,67335,19474,16756608,134782,11901,8498,1839,Tag0,unknown
1545074423394,0,77,1.69189453125E-5,56,38,56,3784,67335,19474,16756608,134782,11901,8498,1839,Tag0,unknown
1545074423394,0,116,2.548828125E-5,56,38,56,3784,67335,19474,16756608,134782,11901,8498,1839,Tag0,unknown
1545074423394,0,-116,-2.548828125E-5,56,38,56,3784,67335,19474,16756608,134782,11901,8498,1839,Tag0,unknown
1545074423426,0,-123,-2.70263671875E-5,56,38,56,3784,67335,19474,16756608,134782,11901,8498,1839,Tag0,unknown
1545074423444,0,105,2.30712890625E-5,56,38,56,3784,67335,19474,16756608,134782,11901,8498,1839,Tag0,unknown
1545074423444,0,99,2.1752929687500003E-5,56,38,56,3784,67335,19474,16756608,134782,11901,8498,1839,Tag0,unknown
1545074423444,0,115,2.52685546875E-5,56,38,56,3784,67335,19474,16756608,134782,11901,8498,1839,Tag0,unknown
1545074423445,0,109,2.39501953125E-5,56,38,56,3784,67335,19474,16756608,134782,11901,8498,1839,Tag0,unknown
1545074423445,0,76,1.669921875E-5,56,38,56,3784,67335,19474,16756608,134782,11901,8498,1839,Tag0,unknown
1545074423445,0,50,1.0986328125E-5,56,38,56,3784,67335,19474,16756608,134782,11901,8498,1839,Tag0,unknown
1545074423445,0,53,1.1645507812500002E-5,56,38,56,3784,67335,19474,16756608,134782,11901,8498,1839,Tag0,unknown
1545074423445,0,81,1.77978515625E-5,56,38,56,3784,67335,19474,16756608,134782,11901,8498,1839,Tag0,unknown
1545074423445,0,92,2.021484375E-5,56,38,56,3784,67335,19474,16756608,134782,11901,8498,1839,Tag0,unknown
1545074423445,0,69,1.51611328125E-5,56,38,56,3784,67335,19474,16756608,134782,11901,8498,1839,Tag0,unknown
1545074423446,0,42,9.228515625000002E-6,56,38,56,3784,67335,19474,16756608,134782,11901,8498,1839,Tag0,unknown
1545074423446,0,50,1.0986328125E-5,56,38,56,3784,67335,19474,16756608,134782,11901,8498,1839,Tag0,unknown
1545074423446,0,81,1.77978515625E-5,56,38,56,3784,67335,19474,16756608,134782,11901,8498,1839,Tag0,unknown
1545074423446,0,98,2.1533203125E-5,56,38,56,3784,67335,19474,16756608,134782,11901,8498,1839,Tag0,unknown
1545074423446,0,75,1.64794921875E-5,56,38,56,3784,67335,19474,16756608,134782,11901,8498,1839,Tag0,unknown
1545074423446,0,43,9.448242187500001E-6,56,38,56,3784,67335,19474,16756608,134782,11901,8498,1839,Tag0,unknown
1545074423446,0,22,4.833984375E-6,56,38,56,3784,67335,19474,16756608,134782,11901,8498,1839,Tag0,unknown
1545074423447,0,34,7.4707031250000005E-6,56,38,56,3784,67335,19474,16756608,134782,11901,8498,1839,Tag0,unknown
1545074423447,0,59,1.29638671875E-5,56,38,56,3784,67335,19474,16756608,134782,11901,8498,1839,Tag0,unknown
1545074423447,0,57,1.2524414062500001E-5,56,38,56,3784,67335,19474,16756608,134782,11901,8498,1839,Tag0,unknown
1545074423447,0,24,5.2734375E-6,56,38,56,3784,67335,19474,16756608,134782,11901,8498,1839,Tag0,unknown
1545074423447,0,18,3.955078125E-6,56,38,56,3784,67335,19474,16756608,134782,11901,8498,1839,Tag0,unknown
1545074423447,0,66,1.4501953125E-5,56,38,56,3784,67335,19474,16756608,134782,11901,8498,1839,Tag0,unknown
1545074423447,0,109,2.39501953125E-5,56,38,56,3784,67335,19474,16756608,134782,11901,8498,1839,Tag0,unknown
1545074423448,0,96,2.109375E-5,56,38,56,3784,67335,19474,16756608,134782,11901,8498,1839,Tag0,unknown
1545074423460,0,61,1.34033203125E-5,56,38,56,3784,67335,19474,16756608,134782,11901,8498,1839,Tag0,unknown
1545074423461,0,55,1.20849609375E-5,56,38,56,3784,67335,19474,16756608,134782,11901,8498,1839,Tag0,unknown
1545074423461,0,81,1.77978515625E-5,56,38,56,3784,67335,19474,16756608,134782,11901,8498,1839,Tag0,unknown
1545074423461,0,115,2.52685546875E-5,56,38,56,3784,67335,19474,16756608,134782,11901,8498,1839,Tag0,unknown
1545074423461,0,124,2.724609375E-5,56,38,56,3784,67335,19474,16756608,134782,11901,8498,1839,Tag0,unknown
1545074423483,0,114,2.5048828125000003E-5,56,38,56,3784,67335,19474,16756608,134782,11901,8498,1839,Tag0,unknown
1545074423503,0,114,2.5048828125000003E-5,56,38,56,3784,67335,19474,16756608,134782,11901,8498,1839,Tag0,unknown
1545074423503,0,-121,-2.6586914062500003E-5,56,38,56,3784,67335,19474,16756608,134782,11901,8498,1839,Tag0,unknown
1545074423503,0,-101,-2.2192382812500002E-5,56,38,56,3784,67335,19474,16756608,134782,11901,8498,1839,Tag0,unknown
1545074423504,0,-105,-2.30712890625E-5,56,38,56,3784,67335,19474,16756608,134782,11901,8498,1839,Tag0,unknown
1545074423504,0,-127,-2.79052734375E-5,56,38,56,3784,67335,19474,16756608,134782,11901,8498,1839,Tag0,unknown
1545074423504,0,112,2.4609375E-5,56,38,56,3784,67335,19474,16756608,134782,11901,8498,1839,Tag0,unknown
1545074423504,0,105,2.30712890625E-5,56,38,56,3784,67335,19474,16756608,134782,11901,8498,1839,Tag0,unknown
1545074423504,0,88,1.93359375E-5,56,38,56,3784,67335,19474,16756608,134782,11901,8498,1839,Tag0,unknown
1545074423504,0,59,1.29638671875E-5,56,38,56,3784,67335,19474,16756608,134782,11901,8498,1839,Tag0,unknown
1545074423505,0,32,7.03125E-6,56,38,56,3784,67335,19474,16756608,134782,11901,8498,1839,Tag0,unknown
1545074423505,0,17,3.7353515625000003E-6,56,38,56,3784,67335,19474,16756608,134782,11901,8498,1839,Tag0,unknown
1545074423505,0,32,7.03125E-6,56,38,56,3784,67335,19474,16756608,134782,11901,8498,1839,Tag0,unknown
1545074423505,0,61,1.34033203125E-5,56,38,56,3784,67335,19474,16756608,134782,11901,8498,1839,Tag0,unknown
1545074423505,0,77,1.69189453125E-5,56,38,56,3784,67335,19474,16756608,134782,11901,8498,1839,Tag0,unknown
1545074423505,0,57,1.2524414062500001E-5,56,38,56,3784,67335,19474,16756608,134782,11901,8498,1839,Tag0,unknown
1545074423506,0,25,5.4931640625E-6,56,38,56,3784,67335,19474,16756608,134782,11901,8498,1839,Tag0,unknown
1545074423506,0,21,4.614257812500001E-6,56,38,56,3784,67335,19474,16756608,134782,11901,8498,1839,Tag0,unknown
1545074423506,0,45,9.8876953125E-6,56,38,56,3784,67335,19474,16756608,134782,11901,8498,1839,Tag0,unknown
1545074423506,0,66,1.4501953125E-5,56,38,56,3784,67335,19474,16756608,134782,11901,8498,1839,Tag0,unknown
1545074423506,0,52,1.142578125E-5,56,38,56,3784,67335,19474,16756608,134782,11901,8498,1839,Tag0,unknown
1545074423506,0,25,5.4931640625E-6,56,38,56,3784,67335,19474,16756608,134782,11901,8498,1839,Tag0,unknown
1545074423507,0,12,2.63671875E-6,56,38,56,3784,67335,19474,16756608,134782,11901,8498,1839,Tag0,unknown
1545074423507,0,33,7.2509765625E-6,56,38,56,3784,67335,19474,16756608,134782,11901,8498,1839,Tag0,unknown
1545074423507,0,66,1.4501953125E-5,56,38,56,3784,67335,19474,16756608,134782,11901,8498,1839,Tag0,unknown
1545074423507,0,72,1.58203125E-5,56,38,56,3784,67335,19474,16756608,134782,11901,8498,1839,Tag0,unknown
1545074423507,0,59,1.29638671875E-5,56,38,56,3784,67335,19474,16756608,134782,11901,8498,1839,Tag0,unknown
1545074423510,0,67,1.4721679687500002E-5,56,38,56,3784,67335,19474,16756608,134782,11901,8498,1839,Tag0,unknown
1545074423511,0,112,2.4609375E-5,56,38,56,3784,67335,19474,16756608,134782,11901,8498,1839,Tag0,unknown
1545074423511,0,-115,-2.52685546875E-5,56,38,56,3784,67335,19474,16756608,134782,11901,8498,1839,Tag0,unknown
1545074423511,0,123,2.70263671875E-5,56,38,56,3784,67335,19474,16756608,134782,11901,8498,1839,Tag0,unknown
1545074423545,0,89,1.95556640625E-5,56,38,56,3784,67335,19474,16756608,134782,11901,8498,1839,Tag0,unknown
1545074423560,0,83,1.82373046875E-5,56,38,56,3784,67335,19474,16756608,134782,11901,8498,1839,Tag0,unknown
1545074423561,0,107,2.35107421875E-5,56,38,56,3784,67335,19474,16756608,134782,11901,8498,1839,Tag0,unknown
1545074423561,0,120,2.63671875E-5,56,38,56,3784,67335,19474,16756608,134782,11901,8498,1839,Tag0,unknown
1545074423561,0,89,1.95556640625E-5,56,38,56,3784,67335,19474,16756608,134782,11901,8498,1839,Tag0,unknown
1545074423561,0,27,5.9326171875000005E-6,56,38,56,3784,67335,19474,16756608,134782,11901,8498,1839,Tag0,unknown
1545074423562,0,-259,-5.69091796875E-5,56,38,56,3784,67335,19474,16756608,134782,11901,8498,1839,Tag0,unknown
1545074423562,0,24,5.2734375E-6,56,38,56,3784,67335,19474,16756608,134782,11901,8498,1839,Tag0,unknown
1545074423562,0,76,1.669921875E-5,56,38,56,3784,67335,19474,16756608,134782,11901,8498,1839,Tag0,unknown
1545074423562,0,80,1.7578125E-5,56,38,56,3784,67335,19474,16756608,134782,11901,8498,1839,Tag0,unknown
1545074423562,0,35,7.6904296875E-6,56,38,56,3784,67335,19474,16756608,134782,11901,8498,1839,Tag0,unknown
1545074423562,0,5,1.0986328125E-6,56,38,56,3784,67335,19474,16756608,134782,11901,8498,1839,Tag0,unknown
1545074423562,0,16,3.515625E-6,56,38,56,3784,67335,19474,16756608,134782,11901,8498,1839,Tag0,unknown
1545074423563,0,42,9.228515625000002E-6,56,38,56,3784,67335,19474,16756608,134782,11901,8498,1839,Tag0,unknown
1545074423563,0,35,7.6904296875E-6,56,38,56,3784,67335,19474,16756608,134782,11901,8498,1839,Tag0,unknown
1545074423563,0,-258,-5.6689453125000004E-5,56,38,56,3784,67335,19474,16756608,134782,11901,8498,1839,Tag0,unknown
1545074423563,0,-285,-6.26220703125E-5,56,38,56,3784,67335,19474,16756608,134782,11901,8498,1839,Tag0,unknown
1545074423563,0,-275,-6.04248046875E-5,56,38,56,3784,67335,19474,16756608,134782,11901,8498,1839,Tag0,unknown
1545074423563,0,11,2.4169921875E-6,56,38,56,3784,67335,19474,16756608,134782,11901,8498,1839,Tag0,unknown
1545074423563,0,20,4.39453125E-6,56,38,56,3784,67335,19474,16756608,134782,11901,8498,1839,Tag0,unknown
1545074423564,0,10,2.197265625E-6,56,38,56,3784,67335,19474,16756608,134782,11901,8498,1839,Tag0,unknown
1545074423566,0,5,1.0986328125E-6,56,38,56,3784,67335,19474,16756608,134782,11901,8498,1839,Tag0,unknown
1545074423566,0,11,2.4169921875E-6,56,38,56,3784,67335,19474,16756608,134782,11901,8498,1839,Tag0,unknown
1545074423566,0,26,5.712890625E-6,56,38,56,3784,67335,19474,16756608,134782,11901,8498,1839,Tag0,unknown
1545074423566,0,37,8.1298828125E-6,56,38,56,3784,67335,19474,16756608,134782,11901,8498,1839,Tag0,unknown
1545074423577,0,37,8.1298828125E-6,56,38,56,3784,67335,19474,16756608,134782,11901,8498,1839,Tag0,unknown
1545074423577,0,49,1.07666015625E-5,56,38,56,3784,67335,19474,16756608,134782,11901,8498,1839,Tag0,unknown
1545074423577,0,82,1.8017578124999998E-5,56,38,56,3784,67335,19474,16756608,134782,11901,8498,1839,Tag0,unknown
1545074423577,0,125,2.74658203125E-5,56,38,56,3784,67335,19474,16756608,134782,11901,8498,1839,Tag0,unknown
1545074423577,0,-105,-2.30712890625E-5,56,38,56,3784,67335,19474,16756608,134782,11901,8498,1839,Tag0,unknown
1545074423611,0,-125,-2.74658203125E-5,56,38,56,3784,67335,19474,16756608,134782,11901,8498,1839,Tag0,unknown
1545074423612,0,90,1.9775390625E-5,56,38,56,3784,67335,19474,16756608,134782,11901,8498,1839,Tag0,unknown
1545074423612,0,80,1.7578125E-5,56,38,56,3784,67335,19474,16756608,134782,11901,8498,1839,Tag0,unknown
1545074423612,0,101,2.2192382812500002E-5,56,38,56,3784,67335,19474,16756608,134782,11901,8498,1839,Tag0,unknown
1545074423627,0,121,2.6586914062500003E-5,56,38,56,3784,67335,19474,16756608,134782,11901,8498,1839,Tag0,unknown
1545074423627,0,116,2.548828125E-5,56,38,56,3784,67335,19474,16756608,134782,11901,8498,1839,Tag0,unknown
1545074423627,0,91,1.99951171875E-5,56,38,56,3784,67335,19474,16756608,134782,11901,8498,1839,Tag0,unknown
1545074423627,0,71,1.56005859375E-5,56,38,56,3784,67335,19474,16756608,134782,11901,8498,1839,Tag0,unknown
1545074423628,0,77,1.69189453125E-5,56,38,56,3784,67335,19474,16756608,134782,11901,8498,1839,Tag0,unknown
1545074423628,0,102,2.2412109374999998E-5,56,38,56,3784,67335,19474,16756608,134782,11901,8498,1839,Tag0,unknown
1545074423628,0,83,1.82373046875E-5,56,38,56,3784,67335,19474,16756608,134782,11901,8498,1839,Tag0,unknown
1545074423628,0,28,6.15234375E-6,56,38,56,3784,67335,19474,16756608,134782,11901,8498,1839,Tag0,unknown
1545074423628,0,-263,-5.7788085937500005E-5,56,38,56,3784,67335,19474,16756608,134782,11901,8498,1839,Tag0,unknown
1545074423628,0,6,1.318359375E-6,56,38,56,3784,67335,19474,16756608,134782,11901,8498,1839,Tag0,unknown
1545074423629,0,40,8.7890625E-6,56,38,56,3784,67335,19474,16756608,134782,11901,8498,1839,Tag0,unknown
1545074423629,0,39,8.5693359375E-6,56,38,56,3784,67335,19474,16756608,134782,11901,8498,1839,Tag0,unknown
1545074423629,0,5,1.0986328125E-6,56,38,56,3784,67335,19474,16756608,134782,11901,8498,1839,Tag0,unknown
1545074423629,0,-265,-5.82275390625E-5,56,38,56,3784,67335,19474,16756608,134782,11901,8498,1839,Tag0,unknown
1545074423629,0,19,4.1748046875E-6,56,38,56,3784,67335,19474,16756608,134782,11901,8498,1839,Tag0,unknown
1545074423631,0,53,1.1645507812500002E-5,56,38,56,3784,67335,19474,16756608,134782,11901,8498,1839,Tag0,unknown
1545074423632,0,49,1.07666015625E-5,56,38,56,3784,67335,19474,16756608,134782,11901,8498,1839,Tag0,unknown
1545074423632,0,16,3.515625E-6,56,38,56,3784,67335,19474,16756608,134782,11901,8498,1839,Tag0,unknown
1545074423632,0,-262,-5.7568359375E-5,56,38,56,3784,67335,19474,16756608,134782,11901,8498,1839,Tag0,unknown
1545074423632,0,11,2.4169921875E-6,56,38,56,3784,67335,19474,16756608,134782,11901,8498,1839,Tag0,unknown
1545074423632,0,67,1.4721679687500002E-5,56,38,56,3784,67335,19474,16756608,134782,11901,8498,1839,Tag0,unknown
1545074423632,0,102,2.2412109374999998E-5,56,38,56,3784,67335,19474,16756608,134782,11901,8498,1839,Tag0,unknown
1545074423633,0,88,1.93359375E-5,56,38,56,3784,67335,19474,16756608,134782,11901,8498,1839,Tag0,unknown
1545074423633,0,60,1.318359375E-5,56,38,56,3784,67335,19474,16756608,134782,11901,8498,1839,Tag0,unknown
1545074423633,0,70,1.5380859375E-5,56,38,56,3784,67335,19474,16756608,134782,11901,8498,1839,Tag0,unknown
1545074423644,0,114,2.5048828125000003E-5,56,38,56,3784,67335,19474,16756608,134782,11901,8498,1839,Tag0,unknown
1545074423644,0,-111,-2.43896484375E-5,56,38,56,3784,67335,19474,16756608,134782,11901,8498,1839,Tag0,unknown
1545074423665,0,-119,-2.6147460937500004E-5,56,38,56,3784,67335,19474,16756608,134782,11901,8498,1839,Tag0,unknown
1545074423677,0,109,2.39501953125E-5,56,38,56,3784,67335,19474,16756608,134782,11901,8498,1839,Tag0,unknown
1545074423677,0,99,2.1752929687500003E-5,56,38,56,3784,67335,19474,16756608,134782,11901,8498,1839,Tag0,unknown
1545074423677,0,112,2.4609375E-5,56,38,56,3784,67335,19474,16756608,134782,11901,8498,1839,Tag0,unknown
1545074423677,0,108,2.3730468750000002E-5,56,38,56,3784,67335,19474,16756608,134782,11901,8498,1839,Tag0,unknown
1545074423678,0,71,1.56005859375E-5,56,38,56,3784,67335,19474,16756608,134782,11901,8498,1839,Tag0,unknown
1545074423678,0,26,5.712890625E-6,56,38,56,3784,67335,19474,16756608,134782,11901,8498,1839,Tag0,unknown
1545074423678,0,17,3.7353515625000003E-6,56,38,56,3784,67335,19474,16756608,134782,11901,8498,1839,Tag0,unknown
1545074423678,0,37,8.1298828125E-6,56,38,56,3784,67335,19474,16756608,134782,11901,8498,1839,Tag0,unknown
1545074423678,0,52,1.142578125E-5,56,38,56,3784,67335,19474,16756608,134782,11901,8498,1839,Tag0,unknown
1545074423678,0,33,7.2509765625E-6,56,38,56,3784,67335,19474,16756608,134782,11901,8498,1839,Tag0,unknown
1545074423679,0,-258,-5.6689453125000004E-5,56,38,56,3784,67335,19474,16756608,134782,11901,8498,1839,Tag0,unknown
1545074423679,0,-276,-6.064453125E-5,56,38,56,3784,67335,19474,16756608,134782,11901,8498,1839,Tag0,unknown
1545074423679,0,-262,-5.7568359375E-5,56,38,56,3784,67335,19474,16756608,134782,11901,8498,1839,Tag0,unknown
1545074423679,0,2,4.39453125E-7,56,38,56,3784,67335,19474,16756608,134782,11901,8498,1839,Tag0,unknown
1545074423679,0,-268,-5.8886718750000006E-5,56,38,56,3784,67335,19474,16756608,134782,11901,8498,1839,Tag0,unknown
1545074423679,0,-294,-6.4599609375E-5,56,38,56,3784,67335,19474,16756608,134782,11901,8498,1839,Tag0,unknown
1545074423680,0,-298,-6.5478515625E-5,56,38,56,3784,67335,19474,16756608,134782,11901,8498,1839,Tag0,unknown
1545074423680,0,-273,-5.998535156250001E-5,56,38,56,3784,67335,19474,16756608,134782,11901,8498,1839,Tag0,unknown
1545074423680,0,10,2.197265625E-6,56,38,56,3784,67335,19474,16756608,134782,11901,8498,1839,Tag0,unknown
1545074423680,0,10,2.197265625E-6,56,38,56,3784,67335,19474,16756608,134782,11901,8498,1839,Tag0,unknown
1545074423680,0,-268,-5.8886718750000006E-5,56,38,56,3784,67335,19474,16756608,134782,11901,8498,1839,Tag0,unknown
1545074423693,0,-291,-6.39404296875E-5,56,38,56,3784,67335,19474,16756608,134782,11901,8498,1839,Tag0,unknown
1545074423694,0,-284,-6.240234375E-5,56,38,56,3784,67335,19474,16756608,134782,11901,8498,1839,Tag0,unknown
1545074423694,0,1,2.197265625E-7,56,38,56,3784,67335,19474,16756608,134782,11901,8498,1839,Tag0,unknown
1545074423694,0,37,8.1298828125E-6,56,38,56,3784,67335,19474,16756608,134782,11901,8498,1839,Tag0,unknown
1545074423694,0,57,1.2524414062500001E-5,56,38,56,3784,67335,19474,16756608,134782,11901,8498,1839,Tag0,unknown
1545074423694,0,60,1.318359375E-5,56,38,56,3784,67335,19474,16756608,134782,11901,8498,1839,Tag0,unknown
1545074423694,0,81,1.77978515625E-5,56,38,56,3784,67335,19474,16756608,134782,11901,8498,1839,Tag0,unknown
1545074423695,0,114,2.5048828125000003E-5,56,38,56,3784,67335,19474,16756608,134782,11901,8498,1839,Tag0,unknown
1545074423695,0,-124,-2.724609375E-5,56,38,56,3784,67335,19474,16756608,134782,11901,8498,1839,Tag0,unknown
1545074423725,0,-128,-2.8125E-5,56,38,56,3784,67335,19474,16756608,134782,11901,8498,1839,Tag0,unknown
1545074423727,0,105,2.30712890625E-5,56,38,56,3784,67335,19474,16756608,134782,11901,8498,1839,Tag0,unknown
1545074423744,0,106,2.3291015625000003E-5,56,38,56,3784,67335,19474,16756608,134782,11901,8498,1839,Tag0,unknown
1545074423744,0,121,2.6586914062500003E-5,56,38,56,3784,67335,19474,16756608,134782,11901,8498,1839,Tag0,unknown
1545074423744,0,116,2.548828125E-5,56,38,56,3784,67335,19474,16756608,134782,11901,8498,1839,Tag0,unknown
1545074423744,0,88,1.93359375E-5,56,38,56,3784,67335,19474,16756608,134782,11901,8498,1839,Tag0,unknown
1545074423744,0,64,1.40625E-5,56,38,56,3784,67335,19474,16756608,134782,11901,8498,1839,Tag0,unknown
1545074423745,0,55,1.20849609375E-5,56,38,56,3784,67335,19474,16756608,134782,11901,8498,1839,Tag0,unknown
1545074423745,0,58,1.2744140625E-5,56,38,56,3784,67335,19474,16756608,134782,11901,8498,1839,Tag0,unknown
1545074423745,0,36,7.91015625E-6,56,38,56,3784,67335,19474,16756608,134782,11901,8498,1839,Tag0,unknown
1545074423747,0,3,6.591796875E-7,51,24,56,179916,16761137,5722,752,11168,1846,524,297,Tag0,unknown
1545074423747,0,-265,-5.82275390625E-5,51,24,56,179916,16761137,5722,752,11168,1846,524,297,Tag0,unknown
1545074423747,0,-265,-5.82275390625E-5,51,24,56,179916,16761137,5722,752,11168,1846,524,297,Tag0,unknown
1545074423748,0,-261,-5.73486328125E-5,51,24,56,179916,16761137,5722,752,11168,1846,524,297,Tag0,unknown
1545074423748,0,-267,-5.86669921875E-5,51,24,56,179916,16761137,5722,752,11168,1846,524,297,Tag0,unknown
1545074423748,0,-290,-6.3720703125E-5,51,24,56,179916,16761137,5722,752,11168,1846,524,297,Tag0,unknown
1545074423748,0,-300,-6.591796875E-5,51,24,56,179916,16761137,5722,752,11168,1846,524,297,Tag0,unknown
1545074423748,0,-285,-6.26220703125E-5,51,24,56,179916,16761137,5722,752,11168,1846,524,297,Tag0,unknown
1545074423787,0,8,1.7578125E-6,51,24,56,179916,16761137,5722,752,11168,1846,524,297,Tag0,unknown
1545074423794,0,35,7.6904296875E-6,51,24,56,179916,16761137,5722,752,11168,1846,524,297,Tag0,unknown
1545074423794,0,26,5.712890625E-6,51,24,56,179916,16761137,5722,752,11168,1846,524,297,Tag0,unknown
1545074423794,0,12,2.63671875E-6,51,24,56,179916,16761137,5722,752,11168,1846,524,297,Tag0,unknown
1545074423810,0,32,7.03125E-6,51,24,56,179916,16761137,5722,752,11168,1846,524,297,Tag0,unknown
1545074423810,0,73,1.6040039062500002E-5,51,24,56,179916,16761137,5722,752,11168,1846,524,297,Tag0,unknown
1545074423811,0,98,2.1533203125E-5,51,24,56,179916,16761137,5722,752,11168,1846,524,297,Tag0,unknown
1545074423811,0,72,1.58203125E-5,51,24,56,179916,16761137,5722,752,11168,1846,524,297,Tag0,unknown
1545074423811,0,35,7.6904296875E-6,51,24,56,179916,16761137,5722,752,11168,1846,524,297,Tag0,unknown
1545074423811,0,34,7.4707031250000005E-6,51,24,56,179916,16761137,5722,752,11168,1846,524,297,Tag0,unknown
1545074423811,0,64,1.40625E-5,51,24,56,179916,16761137,5722,752,11168,1846,524,297,Tag0,unknown
1545074423811,0,88,1.93359375E-5,51,24,56,179916,16761137,5722,752,11168,1846,524,297,Tag0,unknown
1545074423811,0,57,1.2524414062500001E-5,51,24,56,179916,16761137,5722,752,11168,1846,524,297,Tag0,unknown
1545074423812,0,-263,-5.7788085937500005E-5,51,24,56,179916,16761137,5722,752,11168,1846,524,297,Tag0,unknown
1545074423812,0,-297,-6.525878906250001E-5,51,24,56,179916,16761137,5722,752,11168,1846,524,297,Tag0,unknown
1545074423812,0,-274,-6.0205078124999997E-5,51,24,56,179916,16761137,5722,752,11168,1846,524,297,Tag0,unknown
1545074423812,0,19,4.1748046875E-6,51,24,56,179916,16761137,5722,752,11168,1846,524,297,Tag0,unknown
1545074423812,0,17,3.7353515625000003E-6,51,24,56,179916,16761137,5722,752,11168,1846,524,297,Tag0,unknown
1545074423812,0,-259,-5.69091796875E-5,51,24,56,179916,16761137,5722,752,11168,1846,524,297,Tag0,unknown
1545074423812,0,-265,-5.82275390625E-5,51,24,56,179916,16761137,5722,752,11168,1846,524,297,Tag0,unknown
1545074423813,0,7,1.5380859375E-6,51,24,56,179916,16761137,5722,752,11168,1846,524,297,Tag0,unknown
1545074423813,0,35,7.6904296875E-6,51,24,56,179916,16761137,5722,752,11168,1846,524,297,Tag0,unknown
1545074423813,0,39,8.5693359375E-6,51,24,56,179916,16761137,5722,752,11168,1846,524,297,Tag0,unknown
1545074423813,0,9,1.9775390625E-6,51,24,56,179916,16761137,5722,752,11168,1846,524,297,Tag0,unknown
1545074423813,0,-276,-6.064453125E-5,51,24,56,179916,16761137,5722,752,11168,1846,524,297,Tag0,unknown
1545074423814,0,-276,-6.064453125E-5,51,24,56,179916,16761137,5722,752,11168,1846,524,297,Tag0,unknown
1545074423814,0,1,2.197265625E-7,51,24,56,179916,16761137,5722,752,11168,1846,524,297,Tag0,unknown
1545074423814,0,2,4.39453125E-7,51,24,56,179916,16761137,5722,752,11168,1846,524,297,Tag0,unknown
1545074423814,0,-284,-6.240234375E-5,51,24,56,179916,16761137,5722,752,11168,1846,524,297,Tag0,unknown
1545074423814,0,-316,-6.943359375000001E-5,51,24,56,179916,16761137,5722,752,11168,1846,524,297,Tag0,unknown
1545074423814,0,-316,-6.943359375000001E-5,51,24,56,179916,16761137,5722,752,11168,1846,524,297,Tag0,unknown
1545074423815,0,-291,-6.39404296875E-5,51,24,56,179916,16761137,5722,752,11168,1846,524,297,Tag0,unknown
1545074423815,0,-263,-5.7788085937500005E-5,51,24,56,179916,16761137,5722,752,11168,1846,524,297,Tag0,unknown
1545074423815,0,-264,-5.80078125E-5,51,24,56,179916,16761137,5722,752,11168,1846,524,297,Tag0,unknown
1545074423815,0,-277,-6.0864257812500005E-5,51,24,56,179916,16761137,5722,752,11168,1846,524,297,Tag0,unknown
1545074423815,0,-263,-5.7788085937500005E-5,51,24,56,179916,16761137,5722,752,11168,1846,524,297,Tag0,unknown
1545074423815,0,26,5.712890625E-6,51,24,56,179916,16761137,5722,752,11168,1846,524,297,Tag0,unknown
1545074423815,0,52,1.142578125E-5,51,24,56,179916,16761137,5722,752,11168,1846,524,297,Tag0,unknown
1545074423816,0,49,1.07666015625E-5,51,24,56,179916,16761137,5722,752,11168,1846,524,297,Tag0,unknown
1545074423816,0,37,8.1298828125E-6,51,24,56,179916,16761137,5722,752,11168,1846,524,297,Tag0,unknown
1545074423816,0,52,1.142578125E-5,51,24,56,179916,16761137,5722,752,11168,1846,524,297,Tag0,unknown
1545074423816,0,103,2.26318359375E-5,51,24,56,179916,16761137,5722,752,11168,1846,524,297,Tag0,unknown
1545074423827,0,-105,-2.30712890625E-5,51,24,56,179916,16761137,5722,752,11168,1846,524,297,Tag0,unknown
1545074423854,0,-112,-2.4609375E-5,51,24,56,179916,16761137,5722,752,11168,1846,524,297,Tag0,unknown
1545074423854,0,99,2.1752929687500003E-5,51,24,56,179916,16761137,5722,752,11168,1846,524,297,Tag0,unknown
1545074423854,0,86,1.8896484375000003E-5,51,24,56,179916,16761137,5722,752,11168,1846,524,297,Tag0,unknown
1545074423854,0,115,2.52685546875E-5,51,24,56,179916,16761137,5722,752,11168,1846,524,297,Tag0,unknown
1545074423855,0,-122,-2.6806640625E-5,51,24,56,179916,16761137,5722,752,11168,1846,524,297,Tag0,unknown
1545074423855,0,113,2.48291015625E-5,51,24,56,179916,16761137,5722,752,11168,1846,524,297,Tag0,unknown
1545074423855,0,85,1.86767578125E-5,51,24,56,179916,16761137,5722,752,11168,1846,524,297,Tag0,unknown
1545074423856,0,76,1.669921875E-5,51,24,56,179916,16761137,5722,752,11168,1846,524,297,Tag0,unknown
1545074423856,0,82,1.8017578124999998E-5,51,24,56,179916,16761137,5722,752,11168,1846,524,297,Tag0,unknown
1545074423856,0,86,1.8896484375000003E-5,51,24,56,179916,16761137,5722,752,11168,1846,524,297,Tag0,unknown
1545074423856,0,76,1.669921875E-5,51,24,56,179916,16761137,5722,752,11168,1846,524,297,Tag0,unknown
1545074423856,0,42,9.228515625000002E-6,51,24,56,179916,16761137,5722,752,11168,1846,524,297,Tag0,unknown
1545074423857,0,20,4.39453125E-6,51,24,56,179916,16761137,5722,752,11168,1846,524,297,Tag0,unknown
1545074423857,0,40,8.7890625E-6,51,24,56,179916,16761137,5722,752,11168,1846,524,297,Tag0,unknown
1545074423857,0,74,1.6259765625E-5,51,24,56,179916,16761137,5722,752,11168,1846,524,297,Tag0,unknown
1545074423857,0,83,1.82373046875E-5,51,24,56,179916,16761137,5722,752,11168,1846,524,297,Tag0,unknown
1545074423857,0,60,1.318359375E-5,51,24,56,179916,16761137,5722,752,11168,1846,524,297,Tag0,unknown
1545074423857,0,37,8.1298828125E-6,51,24,56,179916,16761137,5722,752,11168,1846,524,297,Tag0,unknown
1545074423858,0,40,8.7890625E-6,51,24,56,179916,16761137,5722,752,11168,1846,524,297,Tag0,unknown
1545074423858,0,60,1.318359375E-5,51,24,56,179916,16761137,5722,752,11168,1846,524,297,Tag0,unknown
1545074423858,0,59,1.29638671875E-5,51,24,56,179916,16761137,5722,752,11168,1846,524,297,Tag0,unknown
1545074423860,0,33,7.2509765625E-6,51,24,56,179916,16761137,5722,752,11168,1846,524,297,Tag0,unknown
1545074423860,0,9,1.9775390625E-6,51,24,56,179916,16761137,5722,752,11168,1846,524,297,Tag0,unknown
1545074423861,0,24,5.2734375E-6,51,24,56,179916,16761137,5722,752,11168,1846,524,297,Tag0,unknown
1545074423881,0,55,1.20849609375E-5,51,24,56,179916,16761137,5722,752,11168,1846,524,297,Tag0,unknown
1545074423882,0,64,1.40625E-5,51,24,56,179916,16761137,5722,752,11168,1846,524,297,Tag0,unknown
1545074423882,0,52,1.142578125E-5,51,24,56,179916,16761137,5722,752,11168,1846,524,297,Tag0,unknown
1545074423882,0,52,1.142578125E-5,51,24,56,179916,16761137,5722,752,11168,1846,524,297,Tag0,unknown
1545074423911,0,83,1.82373046875E-5,51,24,56,179916,16761137,5722,752,11168,1846,524,297,Tag0,unknown
1545074423911,0,-110,-2.4169921875E-5,51,24,56,179916,16761137,5722,752,11168,1846,524,297,Tag0,unknown
1545074423930,0,-76,-1.669921875E-5,51,24,56,179916,16761137,5722,752,11168,1846,524,297,Tag0,unknown
1545074423930,0,-92,-2.021484375E-5,51,24,56,179916,16761137,5722,752,11168,1846,524,297,Tag0,unknown
1545074423930,0,-118,-2.5927734375E-5,51,24,56,179916,16761137,5722,752,11168,1846,524,297,Tag0,unknown
1545074423930,0,-109,-2.39501953125E-5,51,24,56,179916,16761137,5722,752,11168,1846,524,297,Tag0,unknown
1545074423931,0,-86,-1.8896484375000003E-5,51,24,56,179916,16761137,5722,752,11168,1846,524,297,Tag0,unknown
1545074423931,0,-107,-2.35107421875E-5,51,24,56,179916,16761137,5722,752,11168,1846,524,297,Tag0,unknown
1545074423931,0,100,2.197265625E-5,51,24,56,179916,16761137,5722,752,11168,1846,524,297,Tag0,unknown
1545074423932,0,67,1.4721679687500002E-5,51,24,56,179916,16761137,5722,752,11168,1846,524,297,Tag0,unknown
1545074423932,0,66,1.4501953125E-5,51,24,56,179916,16761137,5722,752,11168,1846,524,297,Tag0,unknown
1545074423932,0,83,1.82373046875E-5,51,24,56,179916,16761137,5722,752,11168,1846,524,297,Tag0,unknown
1545074423932,0,83,1.82373046875E-5,51,24,56,179916,16761137,5722,752,11168,1846,524,297,Tag0,unknown
1545074423933,0,51,1.1206054687499999E-5,51,24,56,179916,16761137,5722,752,11168,1846,524,297,Tag0,unknown
1545074423933,0,6,1.318359375E-6,51,24,56,179916,16761137,5722,752,11168,1846,524,297,Tag0,unknown
1545074423933,0,-262,-5.7568359375E-5,51,24,56,179916,16761137,5722,752,11168,1846,524,297,Tag0,unknown
1545074423933,0,22,4.833984375E-6,51,24,56,179916,16761137,5722,752,11168,1846,524,297,Tag0,unknown
1545074423933,0,50,1.0986328125E-5,51,24,56,179916,16761137,5722,752,11168,1846,524,297,Tag0,unknown
1545074423934,0,35,7.6904296875E-6,51,24,56,179916,16761137,5722,752,11168,1846,524,297,Tag0,unknown
1545074423934,0,6,1.318359375E-6,51,24,56,179916,16761137,5722,752,11168,1846,524,297,Tag0,unknown
1545074423934,0,7,1.5380859375E-6,51,24,56,179916,16761137,5722,752,11168,1846,524,297,Tag0,unknown
1545074423934,0,39,8.5693359375E-6,51,24,56,179916,16761137,5722,752,11168,1846,524,297,Tag0,unknown
1545074423934,0,61,1.34033203125E-5,51,24,56,179916,16761137,5722,752,11168,1846,524,297,Tag0,unknown
1545074423935,0,44,9.66796875E-6,51,24,56,179916,16761137,5722,752,11168,1846,524,297,Tag0,unknown
1545074423935,0,1,2.197265625E-7,51,24,56,179916,16761137,5722,752,11168,1846,524,297,Tag0,unknown
1545074423935,0,-273,-5.998535156250001E-5,51,24,56,179916,16761137,5722,752,11168,1846,524,297,Tag0,unknown
1545074423935,0,23,5.0537109375E-6,51,24,56,179916,16761137,5722,752,11168,1846,524,297,Tag0,unknown
1545074423935,0,81,1.77978515625E-5,51,24,56,179916,16761137,5722,752,11168,1846,524,297,Tag0,unknown
1545074423936,0,96,2.109375E-5,51,24,56,179916,16761137,5722,752,11168,1846,524,297,Tag0,unknown
1545074423936,0,71,1.56005859375E-5,51,24,56,179916,16761137,5722,752,11168,1846,524,297,Tag0,unknown
1545074423936,0,52,1.142578125E-5,51,24,56,179916,16761137,5722,752,11168,1846,524,297,Tag0,unknown
1545074423936,0,69,1.51611328125E-5,51,24,56,179916,16761137,5722,752,11168,1846,524,297,Tag0,unknown
1545074423947,0,100,2.197265625E-5,51,24,56,179916,16761137,5722,752,11168,1846,524,297,Tag0,unknown
1545074423947,0,107,2.35107421875E-5,51,24,56,179916,16761137,5722,752,11168,1846,524,297,Tag0,unknown
1545074423975,0,98,2.1533203125E-5,51,24,56,179916,16761137,5722,752,11168,1846,524,297,Tag0,unknown
1545074423975,0,90,1.9775390625E-5,51,24,56,179916,16761137,5722,752,11168,1846,524,297,Tag0,unknown
1545074423976,0,114,2.5048828125000003E-5,51,24,56,179916,16761137,5722,752,11168,1846,524,297,Tag0,unknown
1545074423976,0,-126,-2.7685546875E-5,51,24,56,179916,16761137,5722,752,11168,1846,524,297,Tag0,unknown
1545074423977,0,113,2.48291015625E-5,51,24,56,179916,16761137,5722,752,11168,1846,524,297,Tag0,unknown
1545074423977,0,81,1.77978515625E-5,51,24,56,179916,16761137,5722,752,11168,1846,524,297,Tag0,unknown
1545074423995,0,65,1.42822265625E-5,51,24,56,179916,16761137,5722,752,11168,1846,524,297,Tag0,unknown
1545074423995,0,75,1.64794921875E-5,51,24,56,179916,16761137,5722,752,11168,1846,524,297,Tag0,unknown
1545074423995,0,98,2.1533203125E-5,51,24,56,179916,16761137,5722,752,11168,1846,524,297,Tag0,unknown
1545074423995,0,74,1.6259765625E-5,51,24,56,179916,16761137,5722,752,11168,1846,524,297,Tag0,unknown
1545074423996,0,20,4.39453125E-6,51,24,56,179916,16761137,5722,752,11168,1846,524,297,Tag0,unknown
1545074423996,0,-270,-5.9326171875E-5,51,24,56,179916,16761137,5722,752,11168,1846,524,297,Tag0,unknown
1545074423996,0,-261,-5.73486328125E-5,51,24,56,179916,16761137,5722,752,11168,1846,524,297,Tag0,unknown
1545074423996,0,21,4.614257812500001E-6,51,24,56,179916,16761137,5722,752,11168,1846,524,297,Tag0,unknown
1545074423997,0,19,4.1748046875E-6,51,24,56,179916,16761137,5722,752,11168,1846,524,297,Tag0,unknown
1545074423997,0,-262,-5.7568359375E-5,51,24,56,179916,16761137,5722,752,11168,1846,524,297,Tag0,unknown
1545074423997,0,-266,-5.8447265625E-5,51,24,56,179916,16761137,5722,752,11168,1846,524,297,Tag0,unknown
1545074423997,0,5,1.0986328125E-6,51,24,56,179916,16761137,5722,752,11168,1846,524,297,Tag0,unknown
1545074424001,0,41,9.008789062499999E-6,51,24,56,179916,16761137,5722,752,11168,1846,524,297,Tag0,unknown
1545074424001,0,45,9.8876953125E-6,51,24,56,179916,16761137,5722,752,11168,1846,524,297,Tag0,unknown
1545074424001,0,9,1.9775390625E-6,51,24,56,179916,16761137,5722,752,11168,1846,524,297,Tag0,unknown
1545074424002,0,2,4.39453125E-7,51,24,56,179916,16761137,5722,752,11168,1846,524,297,Tag0,unknown
1545074424002,0,27,5.9326171875000005E-6,51,24,56,179916,16761137,5722,752,11168,1846,524,297,Tag0,unknown
1545074424002,0,69,1.51611328125E-5,51,24,56,179916,16761137,5722,752,11168,1846,524,297,Tag0,unknown
1545074424002,0,90,1.9775390625E-5,51,24,56,179916,16761137,5722,752,11168,1846,524,297,Tag0,unknown
1545074424002,0,72,1.58203125E-5,51,24,56,179916,16761137,5722,752,11168,1846,524,297,Tag0,unknown
1545074424003,0,40,8.7890625E-6,51,24,56,179916,16761137,5722,752,11168,1846,524,297,Tag0,unknown
1545074424003,0,41,9.008789062499999E-6,51,24,56,179916,16761137,5722,752,11168,1846,524,297,Tag0,unknown
1545074424003,0,83,1.82373046875E-5,51,24,56,179916,16761137,5722,752,11168,1846,524,297,Tag0,unknown
1545074424003,0,118,2.5927734375E-5,51,24,56,179916,16761137,5722,752,11168,1846,524,297,Tag0,unknown
1545074424024,0,106,2.3291015625000003E-5,51,24,56,179916,16761137,5722,752,11168,1846,524,297,Tag0,unknown
1545074424027,0,64,1.40625E-5,51,24,56,179916,16761137,5722,752,11168,1846,524,297,Tag0,unknown
1545074424062,0,44,9.66796875E-6,51,24,56,179916,16761137,5722,752,11168,1846,524,297,Tag0,unknown
1545074424062,0,81,1.77978515625E-5,51,24,56,179916,16761137,5722,752,11168,1846,524,297,Tag0,unknown
1545074424062,0,115,2.52685546875E-5,51,24,56,179916,16761137,5722,752,11168,1846,524,297,Tag0,unknown
1545074424062,0,105,2.30712890625E-5,51,24,56,179916,16761137,5722,752,11168,1846,524,297,Tag0,unknown
1545074424066,0,61,1.34033203125E-5,51,24,56,179916,16761137,5722,752,11168,1846,524,297,Tag0,unknown
1545074424066,0,23,5.0537109375E-6,51,24,56,179916,16761137,5722,752,11168,1846,524,297,Tag0,unknown
1545074424066,0,25,5.4931640625E-6,51,24,56,179916,16761137,5722,752,11168,1846,524,297,Tag0,unknown
1545074424066,0,44,9.66796875E-6,51,24,56,179916,16761137,5722,752,11168,1846,524,297,Tag0,unknown
1545074424067,0,48,1.0546875E-5,51,24,56,179916,16761137,5722,752,11168,1846,524,297,Tag0,unknown
1545074424067,0,32,7.03125E-6,51,24,56,179916,16761137,5722,752,11168,1846,524,297,Tag0,unknown
1545074424067,0,16,3.515625E-6,51,24,56,179916,16761137,5722,752,11168,1846,524,297,Tag0,unknown
1545074424067,0,19,4.1748046875E-6,51,24,56,179916,16761137,5722,752,11168,1846,524,297,Tag0,unknown
1545074424067,0,50,1.0986328125E-5,51,24,56,179916,16761137,5722,752,11168,1846,524,297,Tag0,unknown
1545074424068,0,54,1.1865234375000001E-5,51,24,56,179916,16761137,5722,752,11168,1846,524,297,Tag0,unknown
1545074424068,0,11,2.4169921875E-6,51,24,56,179916,16761137,5722,752,11168,1846,524,297,Tag0,unknown
1545074424068,0,-277,-6.0864257812500005E-5,51,24,56,179916,16761137,5722,752,11168,1846,524,297,Tag0,unknown
1545074424068,0,-262,-5.7568359375E-5,51,24,56,179916,16761137,5722,752,11168,1846,524,297,Tag0,unknown
1545074424069,0,34,7.4707031250000005E-6,51,24,56,179916,16761137,5722,752,11168,1846,524,297,Tag0,unknown
1545074424069,0,51,1.1206054687499999E-5,51,24,56,179916,16761137,5722,752,11168,1846,524,297,Tag0,unknown
1545074424069,0,29,6.3720703125E-6,51,24,56,179916,16761137,5722,752,11168,1846,524,297,Tag0,unknown
1545074424069,0,-257,-5.64697265625E-5,51,24,56,179916,16761137,5722,752,11168,1846,524,297,Tag0,unknown
1545074424069,0,-270,-5.9326171875E-5,51,24,56,179916,16761137,5722,752,11168,1846,524,297,Tag0,unknown
1545074424070,0,-263,-5.7788085937500005E-5,51,24,56,179916,16761137,5722,752,11168,1846,524,297,Tag0,unknown
1545074424070,0,0,0.0,51,24,56,179916,16761137,5722,752,11168,1846,524,297,Tag0,unknown
1545074424070,0,-261,-5.73486328125E-5,51,24,56,179916,16761137,5722,752,11168,1846,524,297,Tag0,unknown
1545074424071,0,-265,-5.82275390625E-5,51,24,56,179916,16761137,5722,752,11168,1846,524,297,Tag0,unknown
1545074424071,0,6,1.318359375E-6,51,24,56,179916,16761137,5722,752,11168,1846,524,297,Tag0,unknown
1545074424071,0,41,9.008789062499999E-6,51,24,56,179916,16761137,5722,752,11168,1846,524,297,Tag0,unknown
1545074424071,0,69,1.51611328125E-5,51,24,56,179916,16761137,5722,752,11168,1846,524,297,Tag0,unknown
1545074424107,0,71,1.56005859375E-5,51,24,56,179916,16761137,5722,752,11168,1846,524,297,Tag0,unknown
1545074424107,0,58,1.2744140625E-5,51,24,56,179916,16761137,5722,752,11168,1846,524,297,Tag0,unknown
1545074424107,0,57,1.2524414062500001E-5,51,24,56,179916,16761137,5722,752,11168,1846,524,297,Tag0,unknown
1545074424107,0,85,1.86767578125E-5,51,24,56,179916,16761137,5722,752,11168,1846,524,297,Tag0,unknown
1545074424108,0,109,2.39501953125E-5,51,24,56,179916,16761137,5722,752,11168,1846,524,297,Tag0,unknown
1545074424108,0,98,2.1533203125E-5,51,24,56,179916,16761137,5722,752,11168,1846,524,297,Tag0,unknown
1545074424108,0,61,1.34033203125E-5,51,24,56,179916,16761137,5722,752,11168,1846,524,297,Tag0,unknown
1545074424108,0,51,1.1206054687499999E-5,51,24,56,179916,16761137,5722,752,11168,1846,524,297,Tag0,unknown
1545074424108,0,65,1.42822265625E-5,51,24,56,179916,16761137,5722,752,11168,1846,524,297,Tag0,unknown
1545074424109,0,76,1.669921875E-5,51,24,56,179916,16761137,5722,752,11168,1846,524,297,Tag0,unknown
1545074424109,0,68,1.4941406250000001E-5,51,24,56,179916,16761137,5722,752,11168,1846,524,297,Tag0,unknown
1545074424109,0,41,9.008789062499999E-6,51,24,56,179916,16761137,5722,752,11168,1846,524,297,Tag0,unknown
1545074424109,0,26,5.712890625E-6,51,24,56,179916,16761137,5722,752,11168,1846,524,297,Tag0,unknown
1545074424109,0,40,8.7890625E-6,51,24,56,179916,16761137,5722,752,11168,1846,524,297,Tag0,unknown
1545074424110,0,49,1.07666015625E-5,51,24,56,179916,16761137,5722,752,11168,1846,524,297,Tag0,unknown
1545074424110,0,36,7.91015625E-6,51,24,56,179916,16761137,5722,752,11168,1846,524,297,Tag0,unknown
1545074424110,0,8,1.7578125E-6,51,24,56,179916,16761137,5722,752,11168,1846,524,297,Tag0,unknown
1545074424110,0,-269,-5.9106445312499996E-5,51,24,56,179916,16761137,5722,752,11168,1846,524,297,Tag0,unknown
1545074424110,0,-267,-5.86669921875E-5,51,24,56,179916,16761137,5722,752,11168,1846,524,297,Tag0,unknown
1545074424111,0,18,3.955078125E-6,51,24,56,179916,16761137,5722,752,11168,1846,524,297,Tag0,unknown
1545074424111,0,38,8.349609375E-6,51,24,56,179916,16761137,5722,752,11168,1846,524,297,Tag0,unknown
1545074424111,0,35,7.6904296875E-6,51,24,56,179916,16761137,5722,752,11168,1846,524,297,Tag0,unknown
1545074424112,0,19,4.1748046875E-6,51,24,56,179916,16761137,5722,752,11168,1846,524,297,Tag0,unknown
1545074424112,0,22,4.833984375E-6,51,24,56,179916,16761137,5722,752,11168,1846,524,297,Tag0,unknown
1545074424112,0,49,1.07666015625E-5,51,24,56,179916,16761137,5722,752,11168,1846,524,297,Tag0,unknown
1545074424113,0,58,1.2744140625E-5,51,24,56,179916,16761137,5722,752,11168,1846,524,297,Tag0,unknown
1545074424113,0,44,9.66796875E-6,51,24,56,179916,16761137,5722,752,11168,1846,524,297,Tag0,unknown
1545074424113,0,38,8.349609375E-6,51,24,56,179916,16761137,5722,752,11168,1846,524,297,Tag0,unknown
1545074424115,0,57,1.2524414062500001E-5,51,24,56,179916,16761137,5722,752,11168,1846,524,297,Tag0,unknown
1545074424115,0,88,1.93359375E-5,51,24,56,179916,16761137,5722,752,11168,1846,524,297,Tag0,unknown
1545074424116,0,89,1.95556640625E-5,51,24,56,179916,16761137,5722,752,11168,1846,524,297,Tag0,unknown
1545074424145,0,60,1.318359375E-5,51,24,56,179916,16761137,5722,752,11168,1846,524,297,Tag0,unknown
1545074424163,0,49,1.07666015625E-5,51,24,56,179916,16761137,5722,752,11168,1846,524,297,Tag0,unknown
1545074424166,0,68,1.4941406250000001E-5,51,24,56,179916,16761137,5722,752,11168,1846,524,297,Tag0,unknown
1545074424166,0,102,2.2412109374999998E-5,51,24,56,179916,16761137,5722,752,11168,1846,524,297,Tag0,unknown
1545074424166,0,103,2.26318359375E-5,51,24,56,179916,16761137,5722,752,11168,1846,524,297,Tag0,unknown
1545074424168,0,60,1.318359375E-5,51,24,56,179916,16761137,5722,752,11168,1846,524,297,Tag0,unknown
1545074424169,0,18,3.955078125E-6,51,24,56,179916,16761137,5722,752,11168,1846,524,297,Tag0,unknown
1545074424169,0,27,5.9326171875000005E-6,51,24,56,179916,16761137,5722,752,11168,1846,524,297,Tag0,unknown
1545074424169,0,73,1.6040039062500002E-5,51,24,56,179916,16761137,5722,752,11168,1846,524,297,Tag0,unknown
1545074424169,0,88,1.93359375E-5,51,24,56,179916,16761137,5722,752,11168,1846,524,297,Tag0,unknown
1545074424170,0,61,1.34033203125E-5,51,24,56,179916,16761137,5722,752,11168,1846,524,297,Tag0,unknown
1545074424170,0,24,5.2734375E-6,51,24,56,179916,16761137,5722,752,11168,1846,524,297,Tag0,unknown
1545074424170,0,7,1.5380859375E-6,51,24,56,179916,16761137,5722,752,11168,1846,524,297,Tag0,unknown
1545074424170,0,25,5.4931640625E-6,51,24,56,179916,16761137,5722,752,11168,1846,524,297,Tag0,unknown
1545074424171,0,34,7.4707031250000005E-6,51,24,56,179916,16761137,5722,752,11168,1846,524,297,Tag0,unknown
1545074424171,0,9,1.9775390625E-6,51,24,56,179916,16761137,5722,752,11168,1846,524,297,Tag0,unknown
1545074424172,0,-266,-5.8447265625E-5,51,24,56,179916,16761137,5722,752,11168,1846,524,297,Tag0,unknown
1545074424172,0,-260,-5.712890625E-5,51,24,56,179916,16761137,5722,752,11168,1846,524,297,Tag0,unknown
1545074424172,0,26,5.712890625E-6,51,24,56,179916,16761137,5722,752,11168,1846,524,297,Tag0,unknown
1545074424172,0,44,9.66796875E-6,51,24,56,179916,16761137,5722,752,11168,1846,524,297,Tag0,unknown
1545074424173,0,23,5.0537109375E-6,51,24,56,179916,16761137,5722,752,11168,1846,524,297,Tag0,unknown
1545074424173,0,-258,-5.6689453125000004E-5,51,24,56,179916,16761137,5722,752,11168,1846,524,297,Tag0,unknown
1545074424173,0,7,1.5380859375E-6,51,24,56,179916,16761137,5722,752,11168,1846,524,297,Tag0,unknown
1545074424173,0,44,9.66796875E-6,51,24,56,179916,16761137,5722,752,11168,1846,524,297,Tag0,unknown
1545074424174,0,76,1.669921875E-5,51,24,56,179916,16761137,5722,752,11168,1846,524,297,Tag0,unknown
1545074424177,0,76,1.669921875E-5,51,24,56,179916,16761137,5722,752,11168,1846,524,297,Tag0,unknown
1545074424177,0,70,1.5380859375E-5,51,24,56,179916,16761137,5722,752,11168,1846,524,297,Tag0,unknown
1545074424177,0,75,1.64794921875E-5,51,24,56,179916,16761137,5722,752,11168,1846,524,297,Tag0,unknown
1545074424177,0,109,2.39501953125E-5,51,24,56,179916,16761137,5722,752,11168,1846,524,297,Tag0,unknown
1545074424179,0,-117,-2.5708007812499998E-5,51,24,56,179916,16761137,5722,752,11168,1846,524,297,Tag0,unknown
1545074424179,0,-123,-2.70263671875E-5,51,24,56,179916,16761137,5722,752,11168,1846,524,297,Tag0,unknown
1545074424204,0,114,2.5048828125000003E-5,51,24,56,179916,16761137,5722,752,11168,1846,524,297,Tag0,unknown
1545074424211,0,116,2.548828125E-5,51,24,56,179916,16761137,5722,752,11168,1846,524,297,Tag0,unknown
1545074424211,0,-111,-2.43896484375E-5,51,24,56,179916,16761137,5722,752,11168,1846,524,297,Tag0,unknown
1545074424212,0,-88,-1.93359375E-5,51,24,56,179916,16761137,5722,752,11168,1846,524,297,Tag0,unknown
1545074424212,0,-119,-2.6147460937500004E-5,51,24,56,179916,16761137,5722,752,11168,1846,524,297,Tag0,unknown
1545074424227,0,83,1.82373046875E-5,51,24,56,179916,16761137,5722,752,11168,1846,524,297,Tag0,unknown
1545074424227,0,60,1.318359375E-5,51,24,56,179916,16761137,5722,752,11168,1846,524,297,Tag0,unknown
1545074424227,0,90,1.9775390625E-5,51,24,56,179916,16761137,5722,752,11168,1846,524,297,Tag0,unknown
1545074424227,0,117,2.5708007812499998E-5,51,24,56,179916,16761137,5722,752,11168,1846,524,297,Tag0,unknown
1545074424227,0,101,2.2192382812500002E-5,51,24,56,179916,16761137,5722,752,11168,1846,524,297,Tag0,unknown
1545074424228,0,57,1.2524414062500001E-5,51,24,56,179916,16761137,5722,752,11168,1846,524,297,Tag0,unknown
1545074424228,0,33,7.2509765625E-6,51,24,56,179916,16761137,5722,752,11168,1846,524,297,Tag0,unknown
1545074424229,0,35,7.6904296875E-6,51,24,56,179916,16761137,5722,752,11168,1846,524,297,Tag0,unknown
1545074424229,0,44,9.66796875E-6,51,24,56,179916,16761137,5722,752,11168,1846,524,297,Tag0,unknown
1545074424230,0,32,7.03125E-6,51,24,56,179916,16761137,5722,752,11168,1846,524,297,Tag0,unknown
1545074424230,0,9,1.9775390625E-6,51,24,56,179916,16761137,5722,752,11168,1846,524,297,Tag0,unknown
1545074424230,0,19,4.1748046875E-6,51,24,56,179916,16761137,5722,752,11168,1846,524,297,Tag0,unknown
1545074424230,0,50,1.0986328125E-5,51,24,56,179916,16761137,5722,752,11168,1846,524,297,Tag0,unknown
1545074424231,0,56,1.23046875E-5,51,24,56,179916,16761137,5722,752,11168,1846,524,297,Tag0,unknown
1545074424231,0,19,4.1748046875E-6,51,24,56,179916,16761137,5722,752,11168,1846,524,297,Tag0,unknown
1545074424231,0,-279,-6.13037109375E-5,51,24,56,179916,16761137,5722,752,11168,1846,524,297,Tag0,unknown
1545074424231,0,-277,-6.0864257812500005E-5,51,24,56,179916,16761137,5722,752,11168,1846,524,297,Tag0,unknown
1545074424232,0,26,5.712890625E-6,51,24,56,179916,16761137,5722,752,11168,1846,524,297,Tag0,unknown
1545074424232,0,90,1.9775390625E-5,51,24,56,179916,16761137,5722,752,11168,1846,524,297,Tag0,unknown
1545074424232,0,106,2.3291015625000003E-5,51,24,56,179916,16761137,5722,752,11168,1846,524,297,Tag0,unknown
1545074424232,0,67,1.4721679687500002E-5,51,24,56,179916,16761137,5722,752,11168,1846,524,297,Tag0,unknown
1545074424232,0,37,8.1298828125E-6,51,24,56,179916,16761137,5722,752,11168,1846,524,297,Tag0,unknown
1545074424233,0,60,1.318359375E-5,51,24,56,179916,16761137,5722,752,11168,1846,524,297,Tag0,unknown
1545074424244,0,117,2.5708007812499998E-5,51,24,56,179916,16761137,5722,752,11168,1846,524,297,Tag0,unknown
1545074424244,0,-122,-2.6806640625E-5,51,24,56,179916,16761137,5722,752,11168,1846,524,297,Tag0,unknown
1545074424279,0,98,2.1533203125E-5,51,24,56,179916,16761137,5722,752,11168,1846,524,297,Tag0,unknown
1545074424279,0,52,1.142578125E-5,51,24,56,179916,16761137,5722,752,11168,1846,524,297,Tag0,unknown
1545074424280,0,60,1.318359375E-5,51,24,56,179916,16761137,5722,752,11168,1846,524,297,Tag0,unknown
1545074424280,0,119,2.6147460937500004E-5,51,24,56,179916,16761137,5722,752,11168,1846,524,297,Tag0,unknown
1545074424280,0,-100,-2.197265625E-5,51,24,56,179916,16761137,5722,752,11168,1846,524,297,Tag0,unknown
1545074424280,0,-128,-2.8125E-5,51,24,56,179916,16761137,5722,752,11168,1846,524,297,Tag0,unknown
1545074424280,0,58,1.2744140625E-5,51,24,56,179916,16761137,5722,752,11168,1846,524,297,Tag0,unknown
1545074424281,0,26,5.712890625E-6,51,24,56,179916,16761137,5722,752,11168,1846,524,297,Tag0,unknown
1545074424281,0,48,1.0546875E-5,51,24,56,179916,16761137,5722,752,11168,1846,524,297,Tag0,unknown
1545074424281,0,69,1.51611328125E-5,51,24,56,179916,16761137,5722,752,11168,1846,524,297,Tag0,unknown
1545074424282,0,49,1.07666015625E-5,51,24,56,179916,16761137,5722,752,11168,1846,524,297,Tag0,unknown
1545074424282,0,6,1.318359375E-6,51,24,56,179916,16761137,5722,752,11168,1846,524,297,Tag0,unknown
1545074424282,0,-275,-6.04248046875E-5,51,24,56,179916,16761137,5722,752,11168,1846,524,297,Tag0,unknown
1545074424294,0,3,6.591796875E-7,51,24,56,179916,16761137,5722,752,11168,1846,524,297,Tag0,unknown
1545074424295,0,35,7.6904296875E-6,51,24,56,179916,16761137,5722,752,11168,1846,524,297,Tag0,unknown
1545074424295,0,25,5.4931640625E-6,51,24,56,179916,16761137,5722,752,11168,1846,524,297,Tag0,unknown
1545074424295,0,-259,-5.69091796875E-5,51,24,56,179916,16761137,5722,752,11168,1846,524,297,Tag0,unknown
1545074424295,0,-275,-6.04248046875E-5,51,24,56,179916,16761137,5722,752,11168,1846,524,297,Tag0,unknown
1545074424295,0,-265,-5.82275390625E-5,51,24,56,179916,16761137,5722,752,11168,1846,524,297,Tag0,unknown
1545074424296,0,6,1.318359375E-6,51,24,56,179916,16761137,5722,752,11168,1846,524,297,Tag0,unknown
1545074424296,0,20,4.39453125E-6,51,24,56,179916,16761137,5722,752,11168,1846,524,297,Tag0,unknown
1545074424296,0,23,5.0537109375E-6,51,24,56,179916,16761137,5722,752,11168,1846,524,297,Tag0,unknown
1545074424296,0,17,3.7353515625000003E-6,51,24,56,179916,16761137,5722,752,11168,1846,524,297,Tag0,unknown
1545074424297,0,9,1.9775390625E-6,51,24,56,179916,16761137,5722,752,11168,1846,524,297,Tag0,unknown
1545074424297,0,29,6.3720703125E-6,51,24,56,179916,16761137,5722,752,11168,1846,524,297,Tag0,unknown
1545074424297,0,57,1.2524414062500001E-5,51,24,56,179916,16761137,5722,752,11168,1846,524,297,Tag0,unknown
1545074424297,0,59,1.29638671875E-5,51,24,56,179916,16761137,5722,752,11168,1846,524,297,Tag0,unknown
1545074424297,0,64,1.40625E-5,51,24,56,179916,16761137,5722,752,11168,1846,524,297,Tag0,unknown
1545074424297,0,96,2.109375E-5,51,24,56,179916,16761137,5722,752,11168,1846,524,297,Tag0,unknown
1545074424298,0,-115,-2.52685546875E-5,51,24,56,179916,16761137,5722,752,11168,1846,524,297,Tag0,unknown
1545074424298,0,-99,-2.1752929687500003E-5,51,24,56,179916,16761137,5722,752,11168,1846,524,297,Tag0,unknown
1545074424324,0,-123,-2.70263671875E-5,51,24,56,179916,16761137,5722,752,11168,1846,524,297,Tag0,unknown
1545074424328,0,106,2.3291015625000003E-5,51,24,56,179916,16761137,5722,752,11168,1846,524,297,Tag0,unknown
1545074424344,0,106,2.3291015625000003E-5,51,24,56,179916,16761137,5722,752,11168,1846,524,297,Tag0,unknown
1545074424344,0,-112,-2.4609375E-5,51,24,56,179916,16761137,5722,752,11168,1846,524,297,Tag0,unknown
1545074424345,0,-100,-2.197265625E-5,51,24,56,179916,16761137,5722,752,11168,1846,524,297,Tag0,unknown
1545074424345,0,122,2.6806640625E-5,51,24,56,179916,16761137,5722,752,11168,1846,524,297,Tag0,unknown
1545074424345,0,81,1.77978515625E-5,51,24,56,179916,16761137,5722,752,11168,1846,524,297,Tag0,unknown
1545074424345,0,81,1.77978515625E-5,51,24,56,179916,16761137,5722,752,11168,1846,524,297,Tag0,unknown
1545074424345,0,121,2.6586914062500003E-5,51,24,56,179916,16761137,5722,752,11168,1846,524,297,Tag0,unknown
1545074424346,0,-116,-2.548828125E-5,51,24,56,179916,16761137,5722,752,11168,1846,524,297,Tag0,unknown
1545074424346,0,88,1.93359375E-5,51,24,56,179916,16761137,5722,752,11168,1846,524,297,Tag0,unknown
1545074424346,0,28,6.15234375E-6,51,24,56,179916,16761137,5722,752,11168,1846,524,297,Tag0,unknown
1545074424346,0,23,5.0537109375E-6,51,24,56,179916,16761137,5722,752,11168,1846,524,297,Tag0,unknown
1545074424346,0,40,8.7890625E-6,51,24,56,179916,16761137,5722,752,11168,1846,524,297,Tag0,unknown
1545074424347,0,28,6.15234375E-6,51,24,56,179916,16761137,5722,752,11168,1846,524,297,Tag0,unknown
1545074424347,0,-265,-5.82275390625E-5,51,24,56,179916,16761137,5722,752,11168,1846,524,297,Tag0,unknown
1545074424347,0,-295,-6.48193359375E-5,51,24,56,179916,16761137,5722,752,11168,1846,524,297,Tag0,unknown
1545074424347,0,-294,-6.4599609375E-5,51,24,56,179916,16761137,5722,752,11168,1846,524,297,Tag0,unknown
1545074424347,0,-267,-5.86669921875E-5,51,24,56,179916,16761137,5722,752,11168,1846,524,297,Tag0,unknown
1545074424347,0,10,2.197265625E-6,51,24,56,179916,16761137,5722,752,11168,1846,524,297,Tag0,unknown
1545074424348,0,20,4.39453125E-6,51,24,56,179916,16761137,5722,752,11168,1846,524,297,Tag0,unknown
1545074424348,0,5,1.0986328125E-6,51,24,56,179916,16761137,5722,752,11168,1846,524,297,Tag0,unknown
1545074424348,0,-261,-5.73486328125E-5,51,24,56,179916,16761137,5722,752,11168,1846,524,297,Tag0,unknown
1545074424348,0,7,1.5380859375E-6,51,24,56,179916,16761137,5722,752,11168,1846,524,297,Tag0,unknown
1545074424349,0,27,5.9326171875000005E-6,51,24,56,179916,16761137,5722,752,11168,1846,524,297,Tag0,unknown
1545074424349,0,27,5.9326171875000005E-6,51,24,56,179916,16761137,5722,752,11168,1846,524,297,Tag0,unknown
1545074424349,0,16,3.515625E-6,51,24,56,179916,16761137,5722,752,11168,1846,524,297,Tag0,unknown
1545074424360,0,22,4.833984375E-6,51,24,56,179916,16761137,5722,752,11168,1846,524,297,Tag0,unknown
1545074424360,0,45,9.8876953125E-6,51,24,56,179916,16761137,5722,752,11168,1846,524,297,Tag0,unknown
1545074424360,0,72,1.58203125E-5,51,24,56,179916,16761137,5722,752,11168,1846,524,297,Tag0,unknown
1545074424361,0,88,1.93359375E-5,51,24,56,179916,16761137,5722,752,11168,1846,524,297,Tag0,unknown
1545074424393,0,84,1.8457031250000004E-5,51,24,56,179916,16761137,5722,752,11168,1846,524,297,Tag0,unknown
1545074424394,0,74,1.6259765625E-5,51,24,56,179916,16761137,5722,752,11168,1846,524,297,Tag0,unknown
1545074424394,0,99,2.1752929687500003E-5,51,24,56,179916,16761137,5722,752,11168,1846,524,297,Tag0,unknown
1545074424394,0,-107,-2.35107421875E-5,51,24,56,179916,16761137,5722,752,11168,1846,524,297,Tag0,unknown
1545074424394,0,-103,-2.26318359375E-5,51,24,56,179916,16761137,5722,752,11168,1846,524,297,Tag0,unknown
1545074424395,0,86,1.8896484375000003E-5,51,24,56,179916,16761137,5722,752,11168,1846,524,297,Tag0,unknown
1545074424395,0,17,3.7353515625000003E-6,51,24,56,179916,16761137,5722,752,11168,1846,524,297,Tag0,unknown
1545074424395,0,10,2.197265625E-6,51,24,56,179916,16761137,5722,752,11168,1846,524,297,Tag0,unknown
1545074424395,0,53,1.1645507812500002E-5,51,24,56,179916,16761137,5722,752,11168,1846,524,297,Tag0,unknown
1545074424395,0,69,1.51611328125E-5,51,24,56,179916,16761137,5722,752,11168,1846,524,297,Tag0,unknown
1545074424395,0,28,6.15234375E-6,51,24,56,179916,16761137,5722,752,11168,1846,524,297,Tag0,unknown
1545074424396,0,-265,-5.82275390625E-5,51,24,56,179916,16761137,5722,752,11168,1846,524,297,Tag0,unknown
1545074424396,0,-267,-5.86669921875E-5,51,24,56,179916,16761137,5722,752,11168,1846,524,297,Tag0,unknown
1545074424396,0,8,1.7578125E-6,51,24,56,179916,16761137,5722,752,11168,1846,524,297,Tag0,unknown
1545074424398,0,25,5.4931640625E-6,51,24,56,179916,16761137,5722,752,11168,1846,524,297,Tag0,unknown
1545074424398,0,22,4.833984375E-6,51,24,56,179916,16761137,5722,752,11168,1846,524,297,Tag0,unknown
1545074424399,0,-259,-5.69091796875E-5,51,24,56,179916,16761137,5722,752,11168,1846,524,297,Tag0,unknown
1545074424411,0,-265,-5.82275390625E-5,51,24,56,179916,16761137,5722,752,11168,1846,524,297,Tag0,unknown
1545074424411,0,3,6.591796875E-7,51,24,56,179916,16761137,5722,752,11168,1846,524,297,Tag0,unknown
1545074424411,0,10,2.197265625E-6,51,24,56,179916,16761137,5722,752,11168,1846,524,297,Tag0,unknown
1545074424412,0,-258,-5.6689453125000004E-5,51,24,56,179916,16761137,5722,752,11168,1846,524,297,Tag0,unknown
1545074424412,0,-282,-6.1962890625E-5,51,24,56,179916,16761137,5722,752,11168,1846,524,297,Tag0,unknown
1545074424412,0,-286,-6.2841796875E-5,51,24,56,179916,16761137,5722,752,11168,1846,524,297,Tag0,unknown
1545074424412,0,-259,-5.69091796875E-5,51,24,56,179916,16761137,5722,752,11168,1846,524,297,Tag0,unknown
1545074424412,0,26,5.712890625E-6,51,24,56,179916,16761137,5722,752,11168,1846,524,297,Tag0,unknown
1545074424413,0,27,5.9326171875000005E-6,51,24,56,179916,16761137,5722,752,11168,1846,524,297,Tag0,unknown
1545074424413,0,10,2.197265625E-6,51,24,56,179916,16761137,5722,752,11168,1846,524,297,Tag0,unknown
1545074424413,0,5,1.0986328125E-6,51,24,56,179916,16761137,5722,752,11168,1846,524,297,Tag0,unknown
1545074424414,0,40,8.7890625E-6,51,24,56,179916,16761137,5722,752,11168,1846,524,297,Tag0,unknown
1545074424445,0,99,2.1752929687500003E-5,51,24,56,179916,16761137,5722,752,11168,1846,524,297,Tag0,unknown
1545074424461,0,114,2.5048828125000003E-5,51,24,56,179916,16761137,5722,752,11168,1846,524,297,Tag0,unknown
1545074424461,0,83,1.82373046875E-5,51,24,56,179916,16761137,5722,752,11168,1846,524,297,Tag0,unknown
1545074424462,0,66,1.4501953125E-5,51,24,56,179916,16761137,5722,752,11168,1846,524,297,Tag0,unknown
1545074424462,0,86,1.8896484375000003E-5,51,24,56,179916,16761137,5722,752,11168,1846,524,297,Tag0,unknown
1545074424462,0,123,2.70263671875E-5,51,24,56,179916,16761137,5722,752,11168,1846,524,297,Tag0,unknown
1545074424462,0,118,2.5927734375E-5,51,24,56,179916,16761137,5722,752,11168,1846,524,297,Tag0,unknown
1545074424462,0,74,1.6259765625E-5,51,24,56,179916,16761137,5722,752,11168,1846,524,297,Tag0,unknown
1545074424463,0,44,9.66796875E-6,51,24,56,179916,16761137,5722,752,11168,1846,524,297,Tag0,unknown
1545074424463,0,58,1.2744140625E-5,51,24,56,179916,16761137,5722,752,11168,1846,524,297,Tag0,unknown
1545074424463,0,84,1.8457031250000004E-5,51,24,56,179916,16761137,5722,752,11168,1846,524,297,Tag0,unknown
1545074424463,0,69,1.51611328125E-5,51,24,56,179916,16761137,5722,752,11168,1846,524,297,Tag0,unknown
1545074424463,0,25,5.4931640625E-6,51,24,56,179916,16761137,5722,752,11168,1846,524,297,Tag0,unknown
1545074424464,0,-260,-5.712890625E-5,51,24,56,179916,16761137,5722,752,11168,1846,524,297,Tag0,unknown
1545074424464,0,3,6.591796875E-7,51,24,56,179916,16761137,5722,752,11168,1846,524,297,Tag0,unknown
1545074424464,0,12,2.63671875E-6,51,24,56,179916,16761137,5722,752,11168,1846,524,297,Tag0,unknown
1545074424464,0,11,2.4169921875E-6,51,24,56,179916,16761137,5722,752,11168,1846,524,297,Tag0,unknown
1545074424464,0,0,0.0,51,24,56,179916,16761137,5722,752,11168,1846,524,297,Tag0,unknown
1545074424465,0,-274,-6.0205078124999997E-5,51,24,56,179916,16761137,5722,752,11168,1846,524,297,Tag0,unknown
1545074424465,0,-261,-5.73486328125E-5,51,24,56,179916,16761137,5722,752,11168,1846,524,297,Tag0,unknown
1545074424465,0,32,7.03125E-6,51,24,56,179916,16761137,5722,752,11168,1846,524,297,Tag0,unknown
1545074424465,0,44,9.66796875E-6,51,24,56,179916,16761137,5722,752,11168,1846,524,297,Tag0,unknown
1545074424466,0,21,4.614257812500001E-6,51,24,56,179916,16761137,5722,752,11168,1846,524,297,Tag0,unknown
1545074424466,0,8,1.7578125E-6,51,24,56,179916,16761137,5722,752,11168,1846,524,297,Tag0,unknown
1545074424466,0,21,4.614257812500001E-6,51,24,56,179916,16761137,5722,752,11168,1846,524,297,Tag0,unknown
1545074424466,0,40,8.7890625E-6,51,24,56,179916,16761137,5722,752,11168,1846,524,297,Tag0,unknown
1545074424477,0,50,1.0986328125E-5,51,24,56,179916,16761137,5722,752,11168,1846,524,297,Tag0,unknown
1545074424477,0,51,1.1206054687499999E-5,51,24,56,179916,16761137,5722,752,11168,1846,524,297,Tag0,unknown
1545074424478,0,53,1.1645507812500002E-5,51,24,56,179916,16761137,5722,752,11168,1846,524,297,Tag0,unknown
1545074424478,0,71,1.56005859375E-5,51,24,56,179916,16761137,5722,752,11168,1846,524,297,Tag0,unknown
1545074424478,0,108,2.3730468750000002E-5,51,24,56,179916,16761137,5722,752,11168,1846,524,297,Tag0,unknown
1545074424478,0,-118,-2.5927734375E-5,51,24,56,179916,16761137,5722,752,11168,1846,524,297,Tag0,unknown
1545074424510,0,121,2.6586914062500003E-5,51,24,56,179916,16761137,5722,752,11168,1846,524,297,Tag0,unknown
1545074424526,0,88,1.93359375E-5,51,24,56,179916,16761137,5722,752,11168,1846,524,297,Tag0,unknown
1545074424527,0,101,2.2192382812500002E-5,51,24,56,179916,16761137,5722,752,11168,1846,524,297,Tag0,unknown
1545074424527,0,-119,-2.6147460937500004E-5,51,24,56,179916,16761137,5722,752,11168,1846,524,297,Tag0,unknown
1545074424527,0,-109,-2.39501953125E-5,51,24,56,179916,16761137,5722,752,11168,1846,524,297,Tag0,unknown
1545074424527,0,119,2.6147460937500004E-5,51,24,56,179916,16761137,5722,752,11168,1846,524,297,Tag0,unknown
1545074424528,0,81,1.77978515625E-5,51,24,56,179916,16761137,5722,752,11168,1846,524,297,Tag0,unknown
1545074424528,0,59,1.29638671875E-5,51,24,56,179916,16761137,5722,752,11168,1846,524,297,Tag0,unknown
1545074424528,0,71,1.56005859375E-5,51,24,56,179916,16761137,5722,752,11168,1846,524,297,Tag0,unknown
1545074424528,0,76,1.669921875E-5,51,24,56,179916,16761137,5722,752,11168,1846,524,297,Tag0,unknown
1545074424529,0,44,9.66796875E-6,51,24,56,179916,16761137,5722,752,11168,1846,524,297,Tag0,unknown
1545074424529,0,5,1.0986328125E-6,51,24,56,179916,16761137,5722,752,11168,1846,524,297,Tag0,unknown
1545074424529,0,3,6.591796875E-7,51,24,56,179916,16761137,5722,752,11168,1846,524,297,Tag0,unknown
1545074424529,0,26,5.712890625E-6,51,24,56,179916,16761137,5722,752,11168,1846,524,297,Tag0,unknown
1545074424529,0,48,1.0546875E-5,51,24,56,179916,16761137,5722,752,11168,1846,524,297,Tag0,unknown
1545074424529,0,42,9.228515625000002E-6,51,24,56,179916,16761137,5722,752,11168,1846,524,297,Tag0,unknown
1545074424530,0,11,2.4169921875E-6,51,24,56,179916,16761137,5722,752,11168,1846,524,297,Tag0,unknown
1545074424530,0,-265,-5.82275390625E-5,51,24,56,179916,16761137,5722,752,11168,1846,524,297,Tag0,unknown
1545074424530,0,-257,-5.64697265625E-5,51,24,56,179916,16761137,5722,752,11168,1846,524,297,Tag0,unknown
1545074424530,0,3,6.591796875E-7,51,24,56,179916,16761137,5722,752,11168,1846,524,297,Tag0,unknown
1545074424530,0,-273,-5.998535156250001E-5,51,24,56,179916,16761137,5722,752,11168,1846,524,297,Tag0,unknown
1545074424531,0,-297,-6.525878906250001E-5,51,24,56,179916,16761137,5722,752,11168,1846,524,297,Tag0,unknown
1545074424531,0,-286,-6.2841796875E-5,51,24,56,179916,16761137,5722,752,11168,1846,524,297,Tag0,unknown
1545074424531,0,13,2.8564453125E-6,51,24,56,179916,16761137,5722,752,11168,1846,524,297,Tag0,unknown
1545074424531,0,54,1.1865234375000001E-5,51,24,56,179916,16761137,5722,752,11168,1846,524,297,Tag0,unknown
1545074424531,0,60,1.318359375E-5,51,24,56,179916,16761137,5722,752,11168,1846,524,297,Tag0,unknown
1545074424532,0,48,1.0546875E-5,51,24,56,179916,16761137,5722,752,11168,1846,524,297,Tag0,unknown
1545074424532,0,48,1.0546875E-5,51,24,56,179916,16761137,5722,752,11168,1846,524,297,Tag0,unknown
1545074424546,0,74,1.6259765625E-5,51,24,56,179916,16761137,5722,752,11168,1846,524,297,Tag0,unknown
1545074424547,0,116,2.548828125E-5,51,24,56,179916,16761137,5722,752,11168,1846,524,297,Tag0,unknown
1545074424548,0,-112,-2.4609375E-5,51,24,56,179916,16761137,5722,752,11168,1846,524,297,Tag0,unknown
1545074424568,0,119,2.6147460937500004E-5,51,24,56,179916,16761137,5722,752,11168,1846,524,297,Tag0,unknown
1545074424581,0,83,1.82373046875E-5,51,24,56,179916,16761137,5722,752,11168,1846,524,297,Tag0,unknown
1545074424581,0,77,1.69189453125E-5,51,24,56,179916,16761137,5722,752,11168,1846,524,297,Tag0,unknown
1545074424582,0,101,2.2192382812500002E-5,51,24,56,179916,16761137,5722,752,11168,1846,524,297,Tag0,unknown
1545074424582,0,112,2.4609375E-5,51,24,56,179916,16761137,5722,752,11168,1846,524,297,Tag0,unknown
1545074424582,0,93,2.04345703125E-5,51,24,56,179916,16761137,5722,752,11168,1846,524,297,Tag0,unknown
1545074424582,0,71,1.56005859375E-5,51,24,56,179916,16761137,5722,752,11168,1846,524,297,Tag0,unknown
1545074424583,0,69,1.51611328125E-5,51,24,56,179916,16761137,5722,752,11168,1846,524,297,Tag0,unknown
1545074424583,0,83,1.82373046875E-5,51,24,56,179916,16761137,5722,752,11168,1846,524,297,Tag0,unknown
1545074424583,0,81,1.77978515625E-5,51,24,56,179916,16761137,5722,752,11168,1846,524,297,Tag0,unknown
1545074424583,0,49,1.07666015625E-5,51,24,56,179916,16761137,5722,752,11168,1846,524,297,Tag0,unknown
1545074424584,0,6,1.318359375E-6,51,24,56,179916,16761137,5722,752,11168,1846,524,297,Tag0,unknown
1545074424584,0,-263,-5.7788085937500005E-5,51,24,56,179916,16761137,5722,752,11168,1846,524,297,Tag0,unknown
1545074424584,0,8,1.7578125E-6,51,24,56,179916,16761137,5722,752,11168,1846,524,297,Tag0,unknown
1545074424585,0,21,4.614257812500001E-6,51,24,56,179916,16761137,5722,752,11168,1846,524,297,Tag0,unknown
1545074424585,0,-257,-5.64697265625E-5,51,24,56,179916,16761137,5722,752,11168,1846,524,297,Tag0,unknown
1545074424585,0,-277,-6.0864257812500005E-5,51,24,56,179916,16761137,5722,752,11168,1846,524,297,Tag0,unknown
1545074424585,0,-275,-6.04248046875E-5,51,24,56,179916,16761137,5722,752,11168,1846,524,297,Tag0,unknown
1545074424585,0,3,6.591796875E-7,51,24,56,179916,16761137,5722,752,11168,1846,524,297,Tag0,unknown
1545074424586,0,24,5.2734375E-6,51,24,56,179916,16761137,5722,752,11168,1846,524,297,Tag0,unknown
1545074424586,0,26,5.712890625E-6,51,24,56,179916,16761137,5722,752,11168,1846,524,297,Tag0,unknown
1545074424586,0,27,5.9326171875000005E-6,51,24,56,179916,16761137,5722,752,11168,1846,524,297,Tag0,unknown
1545074424586,0,37,8.1298828125E-6,51,24,56,179916,16761137,5722,752,11168,1846,524,297,Tag0,unknown
1545074424587,0,57,1.2524414062500001E-5,51,24,56,179916,16761137,5722,752,11168,1846,524,297,Tag0,unknown
1545074424587,0,68,1.4941406250000001E-5,51,24,56,179916,16761137,5722,752,11168,1846,524,297,Tag0,unknown
1545074424594,0,42,9.228515625000002E-6,51,24,56,179916,16761137,5722,752,11168,1846,524,297,Tag0,unknown
1545074424594,0,11,2.4169921875E-6,51,24,56,179916,16761137,5722,752,11168,1846,524,297,Tag0,unknown
1545074424595,0,6,1.318359375E-6,51,24,56,179916,16761137,5722,752,11168,1846,524,297,Tag0,unknown
1545074424595,0,42,9.228515625000002E-6,51,24,56,179916,16761137,5722,752,11168,1846,524,297,Tag0,unknown
1545074424595,0,68,1.4941406250000001E-5,51,24,56,179916,16761137,5722,752,11168,1846,524,297,Tag0,unknown
1545074424595,0,43,9.448242187500001E-6,51,24,56,179916,16761137,5722,752,11168,1846,524,297,Tag0,unknown
1545074424629,0,19,4.1748046875E-6,51,24,56,179916,16761137,5722,752,11168,1846,524,297,Tag0,unknown
1545074424630,0,38,8.349609375E-6,51,24,56,179916,16761137,5722,752,11168,1846,524,297,Tag0,unknown
1545074424630,0,90,1.9775390625E-5,51,24,56,179916,16761137,5722,752,11168,1846,524,297,Tag0,unknown
1545074424643,0,-110,-2.4169921875E-5,51,24,56,179916,16761137,5722,752,11168,1846,524,297,Tag0,unknown
1545074424644,0,-103,-2.26318359375E-5,51,24,56,179916,16761137,5722,752,11168,1846,524,297,Tag0,unknown
1545074424644,0,102,2.2412109374999998E-5,51,24,56,179916,16761137,5722,752,11168,1846,524,297,Tag0,unknown
1545074424644,0,53,1.1645507812500002E-5,51,24,56,179916,16761137,5722,752,11168,1846,524,297,Tag0,unknown
1545074424644,0,56,1.23046875E-5,51,24,56,179916,16761137,5722,752,11168,1846,524,297,Tag0,unknown
1545074424645,0,85,1.86767578125E-5,51,24,56,179916,16761137,5722,752,11168,1846,524,297,Tag0,unknown
1545074424645,0,65,1.42822265625E-5,51,24,56,179916,16761137,5722,752,11168,1846,524,297,Tag0,unknown
1545074424645,0,16,3.515625E-6,51,24,56,179916,16761137,5722,752,11168,1846,524,297,Tag0,unknown
1545074424645,0,-267,-5.86669921875E-5,51,24,56,179916,16761137,5722,752,11168,1846,524,297,Tag0,unknown
1545074424646,0,-269,-5.9106445312499996E-5,51,24,56,179916,16761137,5722,752,11168,1846,524,297,Tag0,unknown
1545074424646,0,-262,-5.7568359375E-5,51,24,56,179916,16761137,5722,752,11168,1846,524,297,Tag0,unknown
1545074424646,0,-263,-5.7788085937500005E-5,51,24,56,179916,16761137,5722,752,11168,1846,524,297,Tag0,unknown
1545074424646,0,-281,-6.17431640625E-5,51,24,56,179916,16761137,5722,752,11168,1846,524,297,Tag0,unknown
1545074424646,0,-297,-6.525878906250001E-5,51,24,56,179916,16761137,5722,752,11168,1846,524,297,Tag0,unknown
1545074424647,0,-280,-6.15234375E-5,51,24,56,179916,16761137,5722,752,11168,1846,524,297,Tag0,unknown
1545074424647,0,8,1.7578125E-6,51,24,56,179916,16761137,5722,752,11168,1846,524,297,Tag0,unknown
1545074424648,0,17,3.7353515625000003E-6,51,24,56,179916,16761137,5722,752,11168,1846,524,297,Tag0,unknown
1545074424648,0,5,1.0986328125E-6,51,24,56,179916,16761137,5722,752,11168,1846,524,297,Tag0,unknown
1545074424648,0,4,8.7890625E-7,51,24,56,179916,16761137,5722,752,11168,1846,524,297,Tag0,unknown
1545074424648,0,23,5.0537109375E-6,51,24,56,179916,16761137,5722,752,11168,1846,524,297,Tag0,unknown
1545074424648,0,58,1.2744140625E-5,51,24,56,179916,16761137,5722,752,11168,1846,524,297,Tag0,unknown
1545074424649,0,84,1.8457031250000004E-5,51,24,56,179916,16761137,5722,752,11168,1846,524,297,Tag0,unknown
1545074424662,0,75,1.64794921875E-5,51,24,56,179916,16761137,5722,752,11168,1846,524,297,Tag0,unknown
1545074424663,0,65,1.42822265625E-5,51,24,56,179916,16761137,5722,752,11168,1846,524,297,Tag0,unknown
1545074424664,0,82,1.8017578124999998E-5,51,24,56,179916,16761137,5722,752,11168,1846,524,297,Tag0,unknown
1545074424664,0,112,2.4609375E-5,51,24,56,179916,16761137,5722,752,11168,1846,524,297,Tag0,unknown
1545074424664,0,117,2.5708007812499998E-5,51,24,56,179916,16761137,5722,752,11168,1846,524,297,Tag0,unknown
1545074424685,0,97,2.13134765625E-5,51,24,56,179916,16761137,5722,752,11168,1846,524,297,Tag0,unknown
1545074424694,0,71,1.56005859375E-5,51,24,56,179916,16761137,5722,752,11168,1846,524,297,Tag0,unknown
1545074424694,0,59,1.29638671875E-5,51,24,56,179916,16761137,5722,752,11168,1846,524,297,Tag0,unknown
1545074424694,0,85,1.86767578125E-5,51,24,56,179916,16761137,5722,752,11168,1846,524,297,Tag0,unknown
1545074424695,0,119,2.6147460937500004E-5,51,24,56,179916,16761137,5722,752,11168,1846,524,297,Tag0,unknown
1545074424695,0,115,2.52685546875E-5,51,24,56,179916,16761137,5722,752,11168,1846,524,297,Tag0,unknown
1545074424695,0,84,1.8457031250000004E-5,51,24,56,179916,16761137,5722,752,11168,1846,524,297,Tag0,unknown
1545074424695,0,71,1.56005859375E-5,51,24,56,179916,16761137,5722,752,11168,1846,524,297,Tag0,unknown
1545074424695,0,89,1.95556640625E-5,51,24,56,179916,16761137,5722,752,11168,1846,524,297,Tag0,unknown
1545074424696,0,99,2.1752929687500003E-5,51,24,56,179916,16761137,5722,752,11168,1846,524,297,Tag0,unknown
1545074424696,0,70,1.5380859375E-5,51,24,56,179916,16761137,5722,752,11168,1846,524,297,Tag0,unknown
1545074424696,0,35,7.6904296875E-6,51,24,56,179916,16761137,5722,752,11168,1846,524,297,Tag0,unknown
1545074424696,0,19,4.1748046875E-6,51,24,56,179916,16761137,5722,752,11168,1846,524,297,Tag0,unknown
1545074424696,0,35,7.6904296875E-6,51,24,56,179916,16761137,5722,752,11168,1846,524,297,Tag0,unknown
1545074424697,0,57,1.2524414062500001E-5,51,24,56,179916,16761137,5722,752,11168,1846,524,297,Tag0,unknown
1545074424697,0,50,1.0986328125E-5,51,24,56,179916,16761137,5722,752,11168,1846,524,297,Tag0,unknown
1545074424697,0,11,2.4169921875E-6,51,24,56,179916,16761137,5722,752,11168,1846,524,297,Tag0,unknown
1545074424697,0,-289,-6.35009765625E-5,51,24,56,179916,16761137,5722,752,11168,1846,524,297,Tag0,unknown
1545074424711,0,-290,-6.3720703125E-5,51,24,56,179916,16761137,5722,752,11168,1846,524,297,Tag0,unknown
1545074424712,0,4,8.7890625E-7,51,24,56,179916,16761137,5722,752,11168,1846,524,297,Tag0,unknown
1545074424712,0,22,4.833984375E-6,51,24,56,179916,16761137,5722,752,11168,1846,524,297,Tag0,unknown
1545074424712,0,12,2.63671875E-6,51,24,56,179916,16761137,5722,752,11168,1846,524,297,Tag0,unknown
1545074424713,0,-258,-5.6689453125000004E-5,51,24,56,179916,16761137,5722,752,11168,1846,524,297,Tag0,unknown
1545074424713,0,-257,-5.64697265625E-5,51,24,56,179916,16761137,5722,752,11168,1846,524,297,Tag0,unknown
1545074424713,0,35,7.6904296875E-6,51,24,56,179916,16761137,5722,752,11168,1846,524,297,Tag0,unknown
1545074424713,0,77,1.69189453125E-5,51,24,56,179916,16761137,5722,752,11168,1846,524,297,Tag0,unknown
1545074424713,0,101,2.2192382812500002E-5,51,24,56,179916,16761137,5722,752,11168,1846,524,297,Tag0,unknown
1545074424714,0,100,2.197265625E-5,51,24,56,179916,16761137,5722,752,11168,1846,524,297,Tag0,unknown
1545074424714,0,105,2.30712890625E-5,51,24,56,179916,16761137,5722,752,11168,1846,524,297,Tag0,unknown
1545074424714,0,123,2.70263671875E-5,51,24,56,179916,16761137,5722,752,11168,1846,524,297,Tag0,unknown
1545074424731,0,-127,-2.79052734375E-5,51,24,56,179916,16761137,5722,752,11168,1846,524,297,Tag0,unknown
1545074424749,0,112,2.4609375E-5,66,10,56,24127,11288,4544,7348,124230,15354,7975,2199,Tag0,unknown
1545074424805,0,86,1.8896484375000003E-5,66,10,56,24127,11288,4544,7348,124230,15354,7975,2199,Tag0,unknown
1545074424818,0,85,1.86767578125E-5,66,10,56,24127,11288,4544,7348,124230,15354,7975,2199,Tag0,unknown
1545074424819,0,113,2.48291015625E-5,66,10,56,24127,11288,4544,7348,124230,15354,7975,2199,Tag0,unknown
1545074424819,0,-126,-2.7685546875E-5,66,10,56,24127,11288,4544,7348,124230,15354,7975,2199,Tag0,unknown
1545074424820,0,112,2.4609375E-5,66,10,56,24127,11288,4544,7348,124230,15354,7975,2199,Tag0,unknown
1545074424821,0,69,1.51611328125E-5,66,10,56,24127,11288,4544,7348,124230,15354,7975,2199,Tag0,unknown
1545074424822,0,36,7.91015625E-6,66,10,56,24127,11288,4544,7348,124230,15354,7975,2199,Tag0,unknown
1545074424822,0,49,1.07666015625E-5,66,10,56,24127,11288,4544,7348,124230,15354,7975,2199,Tag0,unknown
1545074424822,0,77,1.69189453125E-5,66,10,56,24127,11288,4544,7348,124230,15354,7975,2199,Tag0,unknown
1545074424823,0,82,1.8017578124999998E-5,66,10,56,24127,11288,4544,7348,124230,15354,7975,2199,Tag0,unknown
1545074424823,0,50,1.0986328125E-5,66,10,56,24127,11288,4544,7348,124230,15354,7975,2199,Tag0,unknown
1545074424823,0,16,3.515625E-6,66,10,56,24127,11288,4544,7348,124230,15354,7975,2199,Tag0,unknown
1545074424872,0,19,4.1748046875E-6,66,10,56,24127,11288,4544,7348,124230,15354,7975,2199,Tag0,unknown
1545074424877,0,40,8.7890625E-6,66,10,56,24127,11288,4544,7348,124230,15354,7975,2199,Tag0,unknown
1545074424911,0,45,9.8876953125E-6,66,10,56,24127,11288,4544,7348,124230,15354,7975,2199,Tag0,unknown
1545074424932,0,43,9.448242187500001E-6,66,10,56,24127,11288,4544,7348,124230,15354,7975,2199,Tag0,unknown
1545074424933,0,51,1.1206054687499999E-5,66,10,56,24127,11288,4544,7348,124230,15354,7975,2199,Tag0,unknown
1545074424934,0,76,1.669921875E-5,66,10,56,24127,11288,4544,7348,124230,15354,7975,2199,Tag0,unknown
1545074424934,0,90,1.9775390625E-5,66,10,56,24127,11288,4544,7348,124230,15354,7975,2199,Tag0,unknown
1545074424934,0,64,1.40625E-5,66,10,56,24127,11288,4544,7348,124230,15354,7975,2199,Tag0,unknown
1545074424935,0,23,5.0537109375E-6,66,10,56,24127,11288,4544,7348,124230,15354,7975,2199,Tag0,unknown
1545074424935,0,4,8.7890625E-7,66,10,56,24127,11288,4544,7348,124230,15354,7975,2199,Tag0,unknown
1545074424935,0,1,2.197265625E-7,66,10,56,24127,11288,4544,7348,124230,15354,7975,2199,Tag0,unknown
1545074424935,0,7,1.5380859375E-6,66,10,56,24127,11288,4544,7348,124230,15354,7975,2199,Tag0,unknown
1545074424936,0,3,6.591796875E-7,66,10,56,24127,11288,4544,7348,124230,15354,7975,2199,Tag0,unknown
1545074424936,0,-270,-5.9326171875E-5,66,10,56,24127,11288,4544,7348,124230,15354,7975,2199,Tag0,unknown
1545074424937,0,-286,-6.2841796875E-5,66,10,56,24127,11288,4544,7348,124230,15354,7975,2199,Tag0,unknown
1545074424937,0,-273,-5.998535156250001E-5,66,10,56,24127,11288,4544,7348,124230,15354,7975,2199,Tag0,unknown
1545074424937,0,2,4.39453125E-7,66,10,56,24127,11288,4544,7348,124230,15354,7975,2199,Tag0,unknown
1545074424938,0,-275,-6.04248046875E-5,66,10,56,24127,11288,4544,7348,124230,15354,7975,2199,Tag0,unknown
1545074424938,0,-311,-6.833496093750001E-5,66,10,56,24127,11288,4544,7348,124230,15354,7975,2199,Tag0,unknown
1545074424938,0,-322,-7.0751953125E-5,66,10,56,24127,11288,4544,7348,124230,15354,7975,2199,Tag0,unknown
1545074424939,0,-296,-6.50390625E-5,66,10,56,24127,11288,4544,7348,124230,15354,7975,2199,Tag0,unknown
1545074424939,0,-263,-5.7788085937500005E-5,66,10,56,24127,11288,4544,7348,124230,15354,7975,2199,Tag0,unknown
1545074424939,0,-275,-6.04248046875E-5,66,10,56,24127,11288,4544,7348,124230,15354,7975,2199,Tag0,unknown
1545074424939,0,-322,-7.0751953125E-5,66,10,56,24127,11288,4544,7348,124230,15354,7975,2199,Tag0,unknown
1545074424940,0,-342,-7.5146484375E-5,66,10,56,24127,11288,4544,7348,124230,15354,7975,2199,Tag0,unknown
1545074424940,0,-323,-7.09716796875E-5,66,10,56,24127,11288,4544,7348,124230,15354,7975,2199,Tag0,unknown
1545074424940,0,-290,-6.3720703125E-5,66,10,56,24127,11288,4544,7348,124230,15354,7975,2199,Tag0,unknown
1545074424941,0,-277,-6.0864257812500005E-5,66,10,56,24127,11288,4544,7348,124230,15354,7975,2199,Tag0,unknown
1545074424941,0,-297,-6.525878906250001E-5,66,10,56,24127,11288,4544,7348,124230,15354,7975,2199,Tag0,unknown
1545074424941,0,-328,-7.207031249999999E-5,66,10,56,24127,11288,4544,7348,124230,15354,7975,2199,Tag0,unknown
1545074424942,0,-331,-7.272949218750001E-5,66,10,56,24127,11288,4544,7348,124230,15354,7975,2199,Tag0,unknown
1545074424942,0,-306,-6.723632812500001E-5,66,10,56,24127,11288,4544,7348,124230,15354,7975,2199,Tag0,unknown
1545074424942,0,-290,-6.3720703125E-5,66,10,56,24127,11288,4544,7348,124230,15354,7975,2199,Tag0,unknown
1545074424943,0,-300,-6.591796875E-5,66,10,56,24127,11288,4544,7348,124230,15354,7975,2199,Tag0,unknown
1545074424943,0,-321,-7.053222656250001E-5,66,10,56,24127,11288,4544,7348,124230,15354,7975,2199,Tag0,unknown
1545074424943,0,-327,-7.18505859375E-5,66,10,56,24127,11288,4544,7348,124230,15354,7975,2199,Tag0,unknown
1545074424944,0,-311,-6.833496093750001E-5,66,10,56,24127,11288,4544,7348,124230,15354,7975,2199,Tag0,unknown
1545074424944,0,-293,-6.43798828125E-5,66,10,56,24127,11288,4544,7348,124230,15354,7975,2199,Tag0,unknown
1545074424944,0,-298,-6.5478515625E-5,66,10,56,24127,11288,4544,7348,124230,15354,7975,2199,Tag0,unknown
1545074424944,0,-310,-6.8115234375E-5,66,10,56,24127,11288,4544,7348,124230,15354,7975,2199,Tag0,unknown
1545074424945,0,-301,-6.613769531250001E-5,66,10,56,24127,11288,4544,7348,124230,15354,7975,2199,Tag0,unknown
1545074424945,0,-274,-6.0205078124999997E-5,66,10,56,24127,11288,4544,7348,124230,15354,7975,2199,Tag0,unknown
1545074424945,0,3,6.591796875E-7,66,10,56,24127,11288,4544,7348,124230,15354,7975,2199,Tag0,unknown
1545074424945,0,-268,-5.8886718750000006E-5,66,10,56,24127,11288,4544,7348,124230,15354,7975,2199,Tag0,unknown
1545074424946,0,-299,-6.56982421875E-5,66,10,56,24127,11288,4544,7348,124230,15354,7975,2199,Tag0,unknown
1545074424946,0,-305,-6.70166015625E-5,66,10,56,24127,11288,4544,7348,124230,15354,7975,2199,Tag0,unknown
1545074424946,0,-290,-6.3720703125E-5,66,10,56,24127,11288,4544,7348,124230,15354,7975,2199,Tag0,unknown
1545074424946,0,-283,-6.218261718750001E-5,66,10,56,24127,11288,4544,7348,124230,15354,7975,2199,Tag0,unknown
1545074424946,0,-295,-6.48193359375E-5,66,10,56,24127,11288,4544,7348,124230,15354,7975,2199,Tag0,unknown
1545074424947,0,-299,-6.56982421875E-5,66,10,56,24127,11288,4544,7348,124230,15354,7975,2199,Tag0,unknown
1545074424947,0,-289,-6.35009765625E-5,66,10,56,24127,11288,4544,7348,124230,15354,7975,2199,Tag0,unknown
1545074424947,0,-269,-5.9106445312499996E-5,66,10,56,24127,11288,4544,7348,124230,15354,7975,2199,Tag0,unknown
1545074424947,0,-267,-5.86669921875E-5,66,10,56,24127,11288,4544,7348,124230,15354,7975,2199,Tag0,unknown
1545074424948,0,-283,-6.218261718750001E-5,66,10,56,24127,11288,4544,7348,124230,15354,7975,2199,Tag0,unknown
1545074424948,0,-295,-6.48193359375E-5,66,10,56,24127,11288,4544,7348,124230,15354,7975,2199,Tag0,unknown
1545074424948,0,-283,-6.218261718750001E-5,66,10,56,24127,11288,4544,7348,124230,15354,7975,2199,Tag0,unknown
1545074424948,0,1,2.197265625E-7,66,10,56,24127,11288,4544,7348,124230,15354,7975,2199,Tag0,unknown
1545074424948,0,28,6.15234375E-6,66,10,56,24127,11288,4544,7348,124230,15354,7975,2199,Tag0,unknown
1545074424949,0,26,5.712890625E-6,66,10,56,24127,11288,4544,7348,124230,15354,7975,2199,Tag0,unknown
1545074424949,0,-262,-5.7568359375E-5,66,10,56,24127,11288,4544,7348,124230,15354,7975,2199,Tag0,unknown
1545074424949,0,-282,-6.1962890625E-5,66,10,56,24127,11288,4544,7348,124230,15354,7975,2199,Tag0,unknown
1545074424960,0,-259,-5.69091796875E-5,66,10,56,24127,11288,4544,7348,124230,15354,7975,2199,Tag0,unknown
1545074424961,0,27,5.9326171875000005E-6,66,10,56,24127,11288,4544,7348,124230,15354,7975,2199,Tag0,unknown
1545074424961,0,24,5.2734375E-6,66,10,56,24127,11288,4544,7348,124230,15354,7975,2199,Tag0,unknown
1545074424961,0,5,1.0986328125E-6,66,10,56,24127,11288,4544,7348,124230,15354,7975,2199,Tag0,unknown
1545074424961,0,-264,-5.80078125E-5,66,10,56,24127,11288,4544,7348,124230,15354,7975,2199,Tag0,unknown
1545074424962,0,5,1.0986328125E-6,66,10,56,24127,11288,4544,7348,124230,15354,7975,2199,Tag0,unknown
1545074424962,0,42,9.228515625000002E-6,66,10,56,24127,11288,4544,7348,124230,15354,7975,2199,Tag0,unknown
1545074424962,0,44,9.66796875E-6,66,10,56,24127,11288,4544,7348,124230,15354,7975,2199,Tag0,unknown
1545074424963,0,3,6.591796875E-7,66,10,56,24127,11288,4544,7348,124230,15354,7975,2199,Tag0,unknown
1545074424963,0,-289,-6.35009765625E-5,66,10,56,24127,11288,4544,7348,124230,15354,7975,2199,Tag0,unknown
1545074424963,0,-283,-6.218261718750001E-5,66,10,56,24127,11288,4544,7348,124230,15354,7975,2199,Tag0,unknown
1545074424963,0,16,3.515625E-6,66,10,56,24127,11288,4544,7348,124230,15354,7975,2199,Tag0,unknown
1545074424963,0,49,1.07666015625E-5,66,10,56,24127,11288,4544,7348,124230,15354,7975,2199,Tag0,unknown
1545074424964,0,39,8.5693359375E-6,66,10,56,24127,11288,4544,7348,124230,15354,7975,2199,Tag0,unknown
1545074424964,0,13,2.8564453125E-6,66,10,56,24127,11288,4544,7348,124230,15354,7975,2199,Tag0,unknown
1545074424964,0,19,4.1748046875E-6,66,10,56,24127,11288,4544,7348,124230,15354,7975,2199,Tag0,unknown
1545074424964,0,45,9.8876953125E-6,66,10,56,24127,11288,4544,7348,124230,15354,7975,2199,Tag0,unknown
1545074424964,0,67,1.4721679687500002E-5,66,10,56,24127,11288,4544,7348,124230,15354,7975,2199,Tag0,unknown
1545074424965,0,52,1.142578125E-5,66,10,56,24127,11288,4544,7348,124230,15354,7975,2199,Tag0,unknown
1545074424965,0,22,4.833984375E-6,66,10,56,24127,11288,4544,7348,124230,15354,7975,2199,Tag0,unknown
1545074424966,0,19,4.1748046875E-6,66,10,56,24127,11288,4544,7348,124230,15354,7975,2199,Tag0,unknown
1545074424966,0,49,1.07666015625E-5,66,10,56,24127,11288,4544,7348,124230,15354,7975,2199,Tag0,unknown
1545074424966,0,72,1.58203125E-5,66,10,56,24127,11288,4544,7348,124230,15354,7975,2199,Tag0,unknown
1545074424966,0,51,1.1206054687499999E-5,66,10,56,24127,11288,4544,7348,124230,15354,7975,2199,Tag0,unknown
1545074424967,0,8,1.7578125E-6,66,10,56,24127,11288,4544,7348,124230,15354,7975,2199,Tag0,unknown
1545074424967,0,-266,-5.8447265625E-5,66,10,56,24127,11288,4544,7348,124230,15354,7975,2199,Tag0,unknown
1545074424967,0,4,8.7890625E-7,66,10,56,24127,11288,4544,7348,124230,15354,7975,2199,Tag0,unknown
1545074424967,0,27,5.9326171875000005E-6,66,10,56,24127,11288,4544,7348,124230,15354,7975,2199,Tag0,unknown
1545074424967,0,17,3.7353515625000003E-6,66,10,56,24127,11288,4544,7348,124230,15354,7975,2199,Tag0,unknown
1545074424968,0,-285,-6.26220703125E-5,66,10,56,24127,11288,4544,7348,124230,15354,7975,2199,Tag0,unknown
1545074424968,0,-313,-6.87744140625E-5,66,10,56,24127,11288,4544,7348,124230,15354,7975,2199,Tag0,unknown
1545074424968,0,-279,-6.13037109375E-5,66,10,56,24127,11288,4544,7348,124230,15354,7975,2199,Tag0,unknown
1545074424968,0,38,8.349609375E-6,66,10,56,24127,11288,4544,7348,124230,15354,7975,2199,Tag0,unknown
1545074424969,0,59,1.29638671875E-5,66,10,56,24127,11288,4544,7348,124230,15354,7975,2199,Tag0,unknown
1545074424969,0,45,9.8876953125E-6,66,10,56,24127,11288,4544,7348,124230,15354,7975,2199,Tag0,unknown
1545074424969,0,35,7.6904296875E-6,66,10,56,24127,11288,4544,7348,124230,15354,7975,2199,Tag0,unknown
1545074424970,0,42,9.228515625000002E-6,66,10,56,24127,11288,4544,7348,124230,15354,7975,2199,Tag0,unknown
1545074424970,0,70,1.5380859375E-5,66,10,56,24127,11288,4544,7348,124230,15354,7975,2199,Tag0,unknown
1545074424970,0,84,1.8457031250000004E-5,66,10,56,24127,11288,4544,7348,124230,15354,7975,2199,Tag0,unknown
1545074424970,0,75,1.64794921875E-5,66,10,56,24127,11288,4544,7348,124230,15354,7975,2199,Tag0,unknown
1545074424970,0,75,1.64794921875E-5,66,10,56,24127,11288,4544,7348,124230,15354,7975,2199,Tag0,unknown
1545074424971,0,105,2.30712890625E-5,66,10,56,24127,11288,4544,7348,124230,15354,7975,2199,Tag0,unknown
1545074424971,0,-112,-2.4609375E-5,66,10,56,24127,11288,4544,7348,124230,15354,7975,2199,Tag0,unknown
1545074424971,0,-107,-2.35107421875E-5,66,10,56,24127,11288,4544,7348,124230,15354,7975,2199,Tag0,unknown
1545074424971,0,105,2.30712890625E-5,66,10,56,24127,11288,4544,7348,124230,15354,7975,2199,Tag0,unknown
1545074424971,0,70,1.5380859375E-5,66,10,56,24127,11288,4544,7348,124230,15354,7975,2199,Tag0,unknown
1545074424972,0,89,1.95556640625E-5,66,10,56,24127,11288,4544,7348,124230,15354,7975,2199,Tag0,unknown
1545074424972,0,-110,-2.4169921875E-5,66,10,56,24127,11288,4544,7348,124230,15354,7975,2199,Tag0,unknown
1545074424972,0,-88,-1.93359375E-5,66,10,56,24127,11288,4544,7348,124230,15354,7975,2199,Tag0,unknown
1545074424972,0,-109,-2.39501953125E-5,66,10,56,24127,11288,4544,7348,124230,15354,7975,2199,Tag0,unknown
1545074424973,0,-120,-2.63671875E-5,66,10,56,24127,11288,4544,7348,124230,15354,7975,2199,Tag0,unknown
1545074424973,0,-87,-1.91162109375E-5,66,10,56,24127,11288,4544,7348,124230,15354,7975,2199,Tag0,unknown
1545074424973,0,-38,-8.349609375E-6,66,10,56,24127,11288,4544,7348,124230,15354,7975,2199,Tag0,unknown
1545074424977,0,-37,-8.1298828125E-6,66,10,56,24127,11288,4544,7348,124230,15354,7975,2199,Tag0,unknown
1545074424978,0,-77,-1.69189453125E-5,66,10,56,24127,11288,4544,7348,124230,15354,7975,2199,Tag0,unknown
1545074424978,0,-107,-2.35107421875E-5,66,10,56,24127,11288,4544,7348,124230,15354,7975,2199,Tag0,unknown
1545074424978,0,-85,-1.86767578125E-5,66,10,56,24127,11288,4544,7348,124230,15354,7975,2199,Tag0,unknown
1545074424978,0,-35,-7.6904296875E-6,66,10,56,24127,11288,4544,7348,124230,15354,7975,2199,Tag0,unknown
1545074424979,0,-16,-3.515625E-6,66,10,56,24127,11288,4544,7348,124230,15354,7975,2199,Tag0,unknown
1545074424979,0,-51,-1.1206054687499999E-5,66,10,56,24127,11288,4544,7348,124230,15354,7975,2199,Tag0,unknown
1545074424979,0,-92,-2.021484375E-5,66,10,56,24127,11288,4544,7348,124230,15354,7975,2199,Tag0,unknown
1545074424979,0,-105,-2.30712890625E-5,66,10,56,24127,11288,4544,7348,124230,15354,7975,2199,Tag0,unknown
1545074424993,0,-89,-1.95556640625E-5,66,10,56,24127,11288,4544,7348,124230,15354,7975,2199,Tag0,unknown
1545074424993,0,-74,-1.6259765625E-5,66,10,56,24127,11288,4544,7348,124230,15354,7975,2199,Tag0,unknown
1545074424993,0,-77,-1.69189453125E-5,66,10,56,24127,11288,4544,7348,124230,15354,7975,2199,Tag0,unknown
1545074424993,0,-95,-2.08740234375E-5,66,10,56,24127,11288,4544,7348,124230,15354,7975,2199,Tag0,unknown
1545074424996,0,-103,-2.26318359375E-5,66,10,56,24127,11288,4544,7348,124230,15354,7975,2199,Tag0,unknown
1545074424997,0,-75,-1.64794921875E-5,66,10,56,24127,11288,4544,7348,124230,15354,7975,2199,Tag0,unknown
1545074424997,0,-46,-1.0107421875E-5,66,10,56,24127,11288,4544,7348,124230,15354,7975,2199,Tag0,unknown
1545074424997,0,-44,-9.66796875E-6,66,10,56,24127,11288,4544,7348,124230,15354,7975,2199,Tag0,unknown
1545074425009,0,-75,-1.64794921875E-5,66,10,56,24127,11288,4544,7348,124230,15354,7975,2199,Tag0,unknown
1545074425010,0,-111,-2.43896484375E-5,66,10,56,24127,11288,4544,7348,124230,15354,7975,2199,Tag0,unknown
1545074425010,0,-120,-2.63671875E-5,66,10,56,24127,11288,4544,7348,124230,15354,7975,2199,Tag0,unknown
1545074425010,0,-100,-2.197265625E-5,66,10,56,24127,11288,4544,7348,124230,15354,7975,2199,Tag0,unknown
1545074425010,0,-91,-1.99951171875E-5,66,10,56,24127,11288,4544,7348,124230,15354,7975,2199,Tag0,unknown
1545074425011,0,-101,-2.2192382812500002E-5,66,10,56,24127,11288,4544,7348,124230,15354,7975,2199,Tag0,unknown
1545074425011,0,-96,-2.109375E-5,66,10,56,24127,11288,4544,7348,124230,15354,7975,2199,Tag0,unknown
1545074425012,0,-68,-1.4941406250000001E-5,66,10,56,24127,11288,4544,7348,124230,15354,7975,2199,Tag0,unknown
1545074425026,0,-44,-9.66796875E-6,66,10,56,24127,11288,4544,7348,124230,15354,7975,2199,Tag0,unknown
1545074425026,0,-57,-1.2524414062500001E-5,66,10,56,24127,11288,4544,7348,124230,15354,7975,2199,Tag0,unknown
1545074425074,0,-91,-1.99951171875E-5,66,10,56,24127,11288,4544,7348,124230,15354,7975,2199,Tag0,unknown
1545074425075,0,-111,-2.43896484375E-5,66,10,56,24127,11288,4544,7348,124230,15354,7975,2199,Tag0,unknown
1545074425075,0,-104,-2.28515625E-5,66,10,56,24127,11288,4544,7348,124230,15354,7975,2199,Tag0,unknown
1545074425077,0,-84,-1.8457031250000004E-5,66,10,56,24127,11288,4544,7348,124230,15354,7975,2199,Tag0,unknown
1545074425077,0,-89,-1.95556640625E-5,66,10,56,24127,11288,4544,7348,124230,15354,7975,2199,Tag0,unknown
1545074425077,0,-104,-2.28515625E-5,66,10,56,24127,11288,4544,7348,124230,15354,7975,2199,Tag0,unknown
1545074425077,0,-108,-2.3730468750000002E-5,66,10,56,24127,11288,4544,7348,124230,15354,7975,2199,Tag0,unknown
1545074425077,0,-92,-2.021484375E-5,66,10,56,24127,11288,4544,7348,124230,15354,7975,2199,Tag0,unknown
1545074425078,0,-73,-1.6040039062500002E-5,66,10,56,24127,11288,4544,7348,124230,15354,7975,2199,Tag0,unknown
1545074425078,0,-91,-1.99951171875E-5,66,10,56,24127,11288,4544,7348,124230,15354,7975,2199,Tag0,unknown
1545074425078,0,121,2.6586914062500003E-5,66,10,56,24127,11288,4544,7348,124230,15354,7975,2199,Tag0,unknown
1545074425078,0,101,2.2192382812500002E-5,66,10,56,24127,11288,4544,7348,124230,15354,7975,2199,Tag0,unknown
1545074425078,0,116,2.548828125E-5,66,10,56,24127,11288,4544,7348,124230,15354,7975,2199,Tag0,unknown
1545074425079,0,-120,-2.63671875E-5,66,10,56,24127,11288,4544,7348,124230,15354,7975,2199,Tag0,unknown
1545074425079,0,108,2.3730468750000002E-5,66,10,56,24127,11288,4544,7348,124230,15354,7975,2199,Tag0,unknown
1545074425079,0,43,9.448242187500001E-6,66,10,56,24127,11288,4544,7348,124230,15354,7975,2199,Tag0,unknown
1545074425079,0,9,1.9775390625E-6,66,10,56,24127,11288,4544,7348,124230,15354,7975,2199,Tag0,unknown
1545074425079,0,22,4.833984375E-6,66,10,56,24127,11288,4544,7348,124230,15354,7975,2199,Tag0,unknown
1545074425079,0,59,1.29638671875E-5,66,10,56,24127,11288,4544,7348,124230,15354,7975,2199,Tag0,unknown
1545074425080,0,70,1.5380859375E-5,66,10,56,24127,11288,4544,7348,124230,15354,7975,2199,Tag0,unknown
1545074425080,0,43,9.448242187500001E-6,66,10,56,24127,11288,4544,7348,124230,15354,7975,2199,Tag0,unknown
1545074425080,0,19,4.1748046875E-6,66,10,56,24127,11288,4544,7348,124230,15354,7975,2199,Tag0,unknown
1545074425080,0,16,3.515625E-6,66,10,56,24127,11288,4544,7348,124230,15354,7975,2199,Tag0,unknown
1545074425081,0,39,8.5693359375E-6,66,10,56,24127,11288,4544,7348,124230,15354,7975,2199,Tag0,unknown
1545074425081,0,61,1.34033203125E-5,66,10,56,24127,11288,4544,7348,124230,15354,7975,2199,Tag0,unknown
1545074425081,0,53,1.1645507812500002E-5,66,10,56,24127,11288,4544,7348,124230,15354,7975,2199,Tag0,unknown
1545074425081,0,42,9.228515625000002E-6,66,10,56,24127,11288,4544,7348,124230,15354,7975,2199,Tag0,unknown
1545074425081,0,56,1.23046875E-5,66,10,56,24127,11288,4544,7348,124230,15354,7975,2199,Tag0,unknown
1545074425081,0,77,1.69189453125E-5,66,10,56,24127,11288,4544,7348,124230,15354,7975,2199,Tag0,unknown
1545074425082,0,86,1.8896484375000003E-5,66,10,56,24127,11288,4544,7348,124230,15354,7975,2199,Tag0,unknown
1545074425082,0,88,1.93359375E-5,66,10,56,24127,11288,4544,7348,124230,15354,7975,2199,Tag0,unknown
1545074425093,0,84,1.8457031250000004E-5,66,10,56,24127,11288,4544,7348,124230,15354,7975,2199,Tag0,unknown
1545074425093,0,92,2.021484375E-5,66,10,56,24127,11288,4544,7348,124230,15354,7975,2199,Tag0,unknown
1545074425094,0,123,2.70263671875E-5,66,10,56,24127,11288,4544,7348,124230,15354,7975,2199,Tag0,unknown
1545074425094,0,-112,-2.4609375E-5,66,10,56,24127,11288,4544,7348,124230,15354,7975,2199,Tag0,unknown
1545074425095,0,-126,-2.7685546875E-5,66,10,56,24127,11288,4544,7348,124230,15354,7975,2199,Tag0,unknown
1545074425095,0,101,2.2192382812500002E-5,66,10,56,24127,11288,4544,7348,124230,15354,7975,2199,Tag0,unknown
1545074425095,0,86,1.8896484375000003E-5,66,10,56,24127,11288,4544,7348,124230,15354,7975,2199,Tag0,unknown
1545074425095,0,105,2.30712890625E-5,66,10,56,24127,11288,4544,7348,124230,15354,7975,2199,Tag0,unknown
1545074425095,0,-117,-2.5708007812499998E-5,66,10,56,24127,11288,4544,7348,124230,15354,7975,2199,Tag0,unknown
1545074425095,0,-108,-2.3730468750000002E-5,66,10,56,24127,11288,4544,7348,124230,15354,7975,2199,Tag0,unknown
1545074425109,0,-128,-2.8125E-5,66,10,56,24127,11288,4544,7348,124230,15354,7975,2199,Tag0,unknown
1545074425109,0,114,2.5048828125000003E-5,66,10,56,24127,11288,4544,7348,124230,15354,7975,2199,Tag0,unknown
1545074425109,0,125,2.74658203125E-5,66,10,56,24127,11288,4544,7348,124230,15354,7975,2199,Tag0,unknown
1545074425110,0,-116,-2.548828125E-5,66,10,56,24127,11288,4544,7348,124230,15354,7975,2199,Tag0,unknown
1545074425110,0,-122,-2.6806640625E-5,66,10,56,24127,11288,4544,7348,124230,15354,7975,2199,Tag0,unknown
1545074425110,0,120,2.63671875E-5,66,10,56,24127,11288,4544,7348,124230,15354,7975,2199,Tag0,unknown
1545074425110,0,118,2.5927734375E-5,66,10,56,24127,11288,4544,7348,124230,15354,7975,2199,Tag0,unknown
1545074425111,0,-121,-2.6586914062500003E-5,66,10,56,24127,11288,4544,7348,124230,15354,7975,2199,Tag0,unknown
1545074425127,0,-96,-2.109375E-5,66,10,56,24127,11288,4544,7348,124230,15354,7975,2199,Tag0,unknown
1545074425127,0,-91,-1.99951171875E-5,66,10,56,24127,11288,4544,7348,124230,15354,7975,2199,Tag0,unknown
1545074425127,0,-107,-2.35107421875E-5,66,10,56,24127,11288,4544,7348,124230,15354,7975,2199,Tag0,unknown
1545074425127,0,124,2.724609375E-5,66,10,56,24127,11288,4544,7348,124230,15354,7975,2199,Tag0,unknown
1545074425127,0,121,2.6586914062500003E-5,66,10,56,24127,11288,4544,7348,124230,15354,7975,2199,Tag0,unknown
1545074425128,0,-106,-2.3291015625000003E-5,66,10,56,24127,11288,4544,7348,124230,15354,7975,2199,Tag0,unknown
1545074425128,0,-85,-1.86767578125E-5,66,10,56,24127,11288,4544,7348,124230,15354,7975,2199,Tag0,unknown
1545074425128,0,-103,-2.26318359375E-5,66,10,56,24127,11288,4544,7348,124230,15354,7975,2199,Tag0,unknown
1545074425128,0,113,2.48291015625E-5,66,10,56,24127,11288,4544,7348,124230,15354,7975,2199,Tag0,unknown
1545074425128,0,107,2.35107421875E-5,66,10,56,24127,11288,4544,7348,124230,15354,7975,2199,Tag0,unknown
1545074425143,0,-106,-2.3291015625000003E-5,66,10,56,24127,11288,4544,7348,124230,15354,7975,2199,Tag0,unknown
1545074425143,0,-94,-2.0654296875000002E-5,66,10,56,24127,11288,4544,7348,124230,15354,7975,2199,Tag0,unknown
1545074425144,0,118,2.5927734375E-5,66,10,56,24127,11288,4544,7348,124230,15354,7975,2199,Tag0,unknown
1545074425144,0,72,1.58203125E-5,66,10,56,24127,11288,4544,7348,124230,15354,7975,2199,Tag0,unknown
1545074425144,0,72,1.58203125E-5,66,10,56,24127,11288,4544,7348,124230,15354,7975,2199,Tag0,unknown
1545074425144,0,99,2.1752929687500003E-5,66,10,56,24127,11288,4544,7348,124230,15354,7975,2199,Tag0,unknown
1545074425144,0,121,2.6586914062500003E-5,66,10,56,24127,11288,4544,7348,124230,15354,7975,2199,Tag0,unknown
1545074425145,0,115,2.52685546875E-5,66,10,56,24127,11288,4544,7348,124230,15354,7975,2199,Tag0,unknown
1545074425159,0,70,1.5380859375E-5,66,10,56,24127,11288,4544,7348,124230,15354,7975,2199,Tag0,unknown
1545074425160,0,54,1.1865234375000001E-5,66,10,56,24127,11288,4544,7348,124230,15354,7975,2199,Tag0,unknown
1545074425160,0,98,2.1533203125E-5,66,10,56,24127,11288,4544,7348,124230,15354,7975,2199,Tag0,unknown
1545074425160,0,-118,-2.5927734375E-5,66,10,56,24127,11288,4544,7348,124230,15354,7975,2199,Tag0,unknown
1545074425161,0,-119,-2.6147460937500004E-5,66,10,56,24127,11288,4544,7348,124230,15354,7975,2199,Tag0,unknown
1545074425161,0,118,2.5927734375E-5,66,10,56,24127,11288,4544,7348,124230,15354,7975,2199,Tag0,unknown
1545074425161,0,118,2.5927734375E-5,66,10,56,24127,11288,4544,7348,124230,15354,7975,2199,Tag0,unknown
1545074425161,0,-125,-2.74658203125E-5,66,10,56,24127,11288,4544,7348,124230,15354,7975,2199,Tag0,unknown
1545074425181,0,-117,-2.5708007812499998E-5,66,10,56,24127,11288,4544,7348,124230,15354,7975,2199,Tag0,unknown
1545074425181,0,118,2.5927734375E-5,66,10,56,24127,11288,4544,7348,124230,15354,7975,2199,Tag0,unknown
1545074425182,0,81,1.77978515625E-5,66,10,56,24127,11288,4544,7348,124230,15354,7975,2199,Tag0,unknown
1545074425182,0,64,1.40625E-5,66,10,56,24127,11288,4544,7348,124230,15354,7975,2199,Tag0,unknown
1545074425182,0,82,1.8017578124999998E-5,66,10,56,24127,11288,4544,7348,124230,15354,7975,2199,Tag0,unknown
1545074425182,0,115,2.52685546875E-5,66,10,56,24127,11288,4544,7348,124230,15354,7975,2199,Tag0,unknown
1545074425183,0,116,2.548828125E-5,66,10,56,24127,11288,4544,7348,124230,15354,7975,2199,Tag0,unknown
1545074425183,0,89,1.95556640625E-5,66,10,56,24127,11288,4544,7348,124230,15354,7975,2199,Tag0,unknown
1545074425183,0,87,1.91162109375E-5,66,10,56,24127,11288,4544,7348,124230,15354,7975,2199,Tag0,unknown
1545074425184,0,119,2.6147460937500004E-5,66,10,56,24127,11288,4544,7348,124230,15354,7975,2199,Tag0,unknown
1545074425193,0,-109,-2.39501953125E-5,66,10,56,24127,11288,4544,7348,124230,15354,7975,2199,Tag0,unknown
1545074425193,0,-118,-2.5927734375E-5,66,10,56,24127,11288,4544,7348,124230,15354,7975,2199,Tag0,unknown
1545074425193,0,101,2.2192382812500002E-5,66,10,56,24127,11288,4544,7348,124230,15354,7975,2199,Tag0,unknown
1545074425194,0,75,1.64794921875E-5,66,10,56,24127,11288,4544,7348,124230,15354,7975,2199,Tag0,unknown
1545074425194,0,100,2.197265625E-5,66,10,56,24127,11288,4544,7348,124230,15354,7975,2199,Tag0,unknown
1545074425194,0,-126,-2.7685546875E-5,66,10,56,24127,11288,4544,7348,124230,15354,7975,2199,Tag0,unknown
1545074425194,0,119,2.6147460937500004E-5,66,10,56,24127,11288,4544,7348,124230,15354,7975,2199,Tag0,unknown
1545074425209,0,85,1.86767578125E-5,66,10,56,24127,11288,4544,7348,124230,15354,7975,2199,Tag0,unknown
1545074425209,0,58,1.2744140625E-5,66,10,56,24127,11288,4544,7348,124230,15354,7975,2199,Tag0,unknown
1545074425210,0,73,1.6040039062500002E-5,66,10,56,24127,11288,4544,7348,124230,15354,7975,2199,Tag0,unknown
1545074425210,0,116,2.548828125E-5,66,10,56,24127,11288,4544,7348,124230,15354,7975,2199,Tag0,unknown
1545074425211,0,119,2.6147460937500004E-5,66,10,56,24127,11288,4544,7348,124230,15354,7975,2199,Tag0,unknown
1545074425211,0,88,1.93359375E-5,66,10,56,24127,11288,4544,7348,124230,15354,7975,2199,Tag0,unknown
1545074425211,0,59,1.29638671875E-5,66,10,56,24127,11288,4544,7348,124230,15354,7975,2199,Tag0,unknown
1545074425212,0,65,1.42822265625E-5,66,10,56,24127,11288,4544,7348,124230,15354,7975,2199,Tag0,unknown
1545074425212,0,92,2.021484375E-5,66,10,56,24127,11288,4544,7348,124230,15354,7975,2199,Tag0,unknown
1545074425228,0,112,2.4609375E-5,66,10,56,24127,11288,4544,7348,124230,15354,7975,2199,Tag0,unknown
1545074425229,0,98,2.1533203125E-5,66,10,56,24127,11288,4544,7348,124230,15354,7975,2199,Tag0,unknown
1545074425231,0,72,1.58203125E-5,66,10,56,24127,11288,4544,7348,124230,15354,7975,2199,Tag0,unknown
1545074425232,0,68,1.4941406250000001E-5,66,10,56,24127,11288,4544,7348,124230,15354,7975,2199,Tag0,unknown
1545074425232,0,91,1.99951171875E-5,66,10,56,24127,11288,4544,7348,124230,15354,7975,2199,Tag0,unknown
1545074425232,0,107,2.35107421875E-5,66,10,56,24127,11288,4544,7348,124230,15354,7975,2199,Tag0,unknown
1545074425232,0,103,2.26318359375E-5,66,10,56,24127,11288,4544,7348,124230,15354,7975,2199,Tag0,unknown
1545074425233,0,80,1.7578125E-5,66,10,56,24127,11288,4544,7348,124230,15354,7975,2199,Tag0,unknown
1545074425242,0,64,1.40625E-5,66,10,56,24127,11288,4544,7348,124230,15354,7975,2199,Tag0,unknown
1545074425243,0,74,1.6259765625E-5,66,10,56,24127,11288,4544,7348,124230,15354,7975,2199,Tag0,unknown
1545074425243,0,97,2.13134765625E-5,66,10,56,24127,11288,4544,7348,124230,15354,7975,2199,Tag0,unknown
1545074425243,0,99,2.1752929687500003E-5,66,10,56,24127,11288,4544,7348,124230,15354,7975,2199,Tag0,unknown
1545074425243,0,72,1.58203125E-5,66,10,56,24127,11288,4544,7348,124230,15354,7975,2199,Tag0,unknown
1545074425244,0,54,1.1865234375000001E-5,66,10,56,24127,11288,4544,7348,124230,15354,7975,2199,Tag0,unknown
1545074425244,0,69,1.51611328125E-5,66,10,56,24127,11288,4544,7348,124230,15354,7975,2199,Tag0,unknown
1545074425244,0,89,1.95556640625E-5,66,10,56,24127,11288,4544,7348,124230,15354,7975,2199,Tag0,unknown
1545074425244,0,82,1.8017578124999998E-5,66,10,56,24127,11288,4544,7348,124230,15354,7975,2199,Tag0,unknown
1545074425259,0,44,9.66796875E-6,66,10,56,24127,11288,4544,7348,124230,15354,7975,2199,Tag0,unknown
1545074425259,0,19,4.1748046875E-6,66,10,56,24127,11288,4544,7348,124230,15354,7975,2199,Tag0,unknown
1545074425259,0,41,9.008789062499999E-6,66,10,56,24127,11288,4544,7348,124230,15354,7975,2199,Tag0,unknown
1545074425260,0,81,1.77978515625E-5,66,10,56,24127,11288,4544,7348,124230,15354,7975,2199,Tag0,unknown
1545074425263,0,86,1.8896484375000003E-5,66,10,56,24127,11288,4544,7348,124230,15354,7975,2199,Tag0,unknown
1545074425263,0,51,1.1206054687499999E-5,66,10,56,24127,11288,4544,7348,124230,15354,7975,2199,Tag0,unknown
1545074425263,0,23,5.0537109375E-6,66,10,56,24127,11288,4544,7348,124230,15354,7975,2199,Tag0,unknown
1545074425263,0,32,7.03125E-6,66,10,56,24127,11288,4544,7348,124230,15354,7975,2199,Tag0,unknown
1545074425275,0,59,1.29638671875E-5,66,10,56,24127,11288,4544,7348,124230,15354,7975,2199,Tag0,unknown
1545074425276,0,71,1.56005859375E-5,66,10,56,24127,11288,4544,7348,124230,15354,7975,2199,Tag0,unknown
1545074425276,0,53,1.1645507812500002E-5,66,10,56,24127,11288,4544,7348,124230,15354,7975,2199,Tag0,unknown
1545074425276,0,40,8.7890625E-6,66,10,56,24127,11288,4544,7348,124230,15354,7975,2199,Tag0,unknown
1545074425277,0,57,1.2524414062500001E-5,66,10,56,24127,11288,4544,7348,124230,15354,7975,2199,Tag0,unknown
1545074425277,0,82,1.8017578124999998E-5,66,10,56,24127,11288,4544,7348,124230,15354,7975,2199,Tag0,unknown
1545074425277,0,82,1.8017578124999998E-5,66,10,56,24127,11288,4544,7348,124230,15354,7975,2199,Tag0,unknown
1545074425277,0,55,1.20849609375E-5,66,10,56,24127,11288,4544,7348,124230,15354,7975,2199,Tag0,unknown
1545074425278,0,40,8.7890625E-6,66,10,56,24127,11288,4544,7348,124230,15354,7975,2199,Tag0,unknown
1545074425292,0,67,1.4721679687500002E-5,66,10,56,24127,11288,4544,7348,124230,15354,7975,2199,Tag0,unknown
1545074425292,0,108,2.3730468750000002E-5,66,10,56,24127,11288,4544,7348,124230,15354,7975,2199,Tag0,unknown
1545074425293,0,105,2.30712890625E-5,66,10,56,24127,11288,4544,7348,124230,15354,7975,2199,Tag0,unknown
1545074425296,0,66,1.4501953125E-5,66,10,56,24127,11288,4544,7348,124230,15354,7975,2199,Tag0,unknown
1545074425297,0,39,8.5693359375E-6,66,10,56,24127,11288,4544,7348,124230,15354,7975,2199,Tag0,unknown
1545074425297,0,54,1.1865234375000001E-5,66,10,56,24127,11288,4544,7348,124230,15354,7975,2199,Tag0,unknown
1545074425297,0,86,1.8896484375000003E-5,66,10,56,24127,11288,4544,7348,124230,15354,7975,2199,Tag0,unknown
1545074425297,0,85,1.86767578125E-5,66,10,56,24127,11288,4544,7348,124230,15354,7975,2199,Tag0,unknown
1545074425297,0,55,1.20849609375E-5,66,10,56,24127,11288,4544,7348,124230,15354,7975,2199,Tag0,unknown
1545074425311,0,34,7.4707031250000005E-6,66,10,56,24127,11288,4544,7348,124230,15354,7975,2199,Tag0,unknown
1545074425311,0,48,1.0546875E-5,66,10,56,24127,11288,4544,7348,124230,15354,7975,2199,Tag0,unknown
1545074425312,0,81,1.77978515625E-5,66,10,56,24127,11288,4544,7348,124230,15354,7975,2199,Tag0,unknown
1545074425312,0,86,1.8896484375000003E-5,66,10,56,24127,11288,4544,7348,124230,15354,7975,2199,Tag0,unknown
1545074425312,0,66,1.4501953125E-5,66,10,56,24127,11288,4544,7348,124230,15354,7975,2199,Tag0,unknown
1545074425313,0,59,1.29638671875E-5,66,10,56,24127,11288,4544,7348,124230,15354,7975,2199,Tag0,unknown
1545074425313,0,75,1.64794921875E-5,66,10,56,24127,11288,4544,7348,124230,15354,7975,2199,Tag0,unknown
1545074425313,0,102,2.2412109374999998E-5,66,10,56,24127,11288,4544,7348,124230,15354,7975,2199,Tag0,unknown
1545074425314,0,108,2.3730468750000002E-5,66,10,56,24127,11288,4544,7348,124230,15354,7975,2199,Tag0,unknown
1545074425326,0,87,1.91162109375E-5,66,10,56,24127,11288,4544,7348,124230,15354,7975,2199,Tag0,unknown
1545074425326,0,67,1.4721679687500002E-5,66,10,56,24127,11288,4544,7348,124230,15354,7975,2199,Tag0,unknown
1545074425329,0,65,1.42822265625E-5,66,10,56,24127,11288,4544,7348,124230,15354,7975,2199,Tag0,unknown
1545074425329,0,81,1.77978515625E-5,66,10,56,24127,11288,4544,7348,124230,15354,7975,2199,Tag0,unknown
1545074425329,0,88,1.93359375E-5,66,10,56,24127,11288,4544,7348,124230,15354,7975,2199,Tag0,unknown
1545074425329,0,71,1.56005859375E-5,66,10,56,24127,11288,4544,7348,124230,15354,7975,2199,Tag0,unknown
1545074425330,0,52,1.142578125E-5,66,10,56,24127,11288,4544,7348,124230,15354,7975,2199,Tag0,unknown
1545074425342,0,55,1.20849609375E-5,66,10,56,24127,11288,4544,7348,124230,15354,7975,2199,Tag0,unknown
1545074425343,0,69,1.51611328125E-5,66,10,56,24127,11288,4544,7348,124230,15354,7975,2199,Tag0,unknown
1545074425343,0,66,1.4501953125E-5,66,10,56,24127,11288,4544,7348,124230,15354,7975,2199,Tag0,unknown
1545074425343,0,36,7.91015625E-6,66,10,56,24127,11288,4544,7348,124230,15354,7975,2199,Tag0,unknown
1545074425343,0,11,2.4169921875E-6,66,10,56,24127,11288,4544,7348,124230,15354,7975,2199,Tag0,unknown
1545074425343,0,12,2.63671875E-6,66,10,56,24127,11288,4544,7348,124230,15354,7975,2199,Tag0,unknown
1545074425344,0,35,7.6904296875E-6,66,10,56,24127,11288,4544,7348,124230,15354,7975,2199,Tag0,unknown
1545074425344,0,53,1.1645507812500002E-5,66,10,56,24127,11288,4544,7348,124230,15354,7975,2199,Tag0,unknown
1545074425344,0,55,1.20849609375E-5,66,10,56,24127,11288,4544,7348,124230,15354,7975,2199,Tag0,unknown
1545074425359,0,33,7.2509765625E-6,66,10,56,24127,11288,4544,7348,124230,15354,7975,2199,Tag0,unknown
1545074425359,0,5,1.0986328125E-6,66,10,56,24127,11288,4544,7348,124230,15354,7975,2199,Tag0,unknown
1545074425359,0,10,2.197265625E-6,66,10,56,24127,11288,4544,7348,124230,15354,7975,2199,Tag0,unknown
1545074425362,0,49,1.07666015625E-5,66,10,56,24127,11288,4544,7348,124230,15354,7975,2199,Tag0,unknown
1545074425363,0,64,1.40625E-5,66,10,56,24127,11288,4544,7348,124230,15354,7975,2199,Tag0,unknown
1545074425363,0,39,8.5693359375E-6,66,10,56,24127,11288,4544,7348,124230,15354,7975,2199,Tag0,unknown
1545074425363,0,22,4.833984375E-6,66,10,56,24127,11288,4544,7348,124230,15354,7975,2199,Tag0,unknown
1545074425363,0,34,7.4707031250000005E-6,66,10,56,24127,11288,4544,7348,124230,15354,7975,2199,Tag0,unknown
1545074425364,0,39,8.5693359375E-6,66,10,56,24127,11288,4544,7348,124230,15354,7975,2199,Tag0,unknown
1545074425377,0,19,4.1748046875E-6,66,10,56,24127,11288,4544,7348,124230,15354,7975,2199,Tag0,unknown
1545074425377,0,-265,-5.82275390625E-5,66,10,56,24127,11288,4544,7348,124230,15354,7975,2199,Tag0,unknown
1545074425378,0,-274,-6.0205078124999997E-5,66,10,56,24127,11288,4544,7348,124230,15354,7975,2199,Tag0,unknown
1545074425378,0,10,2.197265625E-6,66,10,56,24127,11288,4544,7348,124230,15354,7975,2199,Tag0,unknown
1545074425379,0,56,1.23046875E-5,66,10,56,24127,11288,4544,7348,124230,15354,7975,2199,Tag0,unknown
1545074425379,0,71,1.56005859375E-5,66,10,56,24127,11288,4544,7348,124230,15354,7975,2199,Tag0,unknown
1545074425379,0,53,1.1645507812500002E-5,66,10,56,24127,11288,4544,7348,124230,15354,7975,2199,Tag0,unknown
1545074425379,0,27,5.9326171875000005E-6,66,10,56,24127,11288,4544,7348,124230,15354,7975,2199,Tag0,unknown
1545074425380,0,28,6.15234375E-6,66,10,56,24127,11288,4544,7348,124230,15354,7975,2199,Tag0,unknown
1545074425392,0,58,1.2744140625E-5,66,10,56,24127,11288,4544,7348,124230,15354,7975,2199,Tag0,unknown
1545074425392,0,83,1.82373046875E-5,66,10,56,24127,11288,4544,7348,124230,15354,7975,2199,Tag0,unknown
1545074425393,0,87,1.91162109375E-5,66,10,56,24127,11288,4544,7348,124230,15354,7975,2199,Tag0,unknown
1545074425395,0,75,1.64794921875E-5,66,10,56,24127,11288,4544,7348,124230,15354,7975,2199,Tag0,unknown
1545074425396,0,67,1.4721679687500002E-5,66,10,56,24127,11288,4544,7348,124230,15354,7975,2199,Tag0,unknown
1545074425396,0,82,1.8017578124999998E-5,66,10,56,24127,11288,4544,7348,124230,15354,7975,2199,Tag0,unknown
1545074425396,0,90,1.9775390625E-5,66,10,56,24127,11288,4544,7348,124230,15354,7975,2199,Tag0,unknown
1545074425408,0,77,1.69189453125E-5,66,10,56,24127,11288,4544,7348,124230,15354,7975,2199,Tag0,unknown
1545074425409,0,53,1.1645507812500002E-5,66,10,56,24127,11288,4544,7348,124230,15354,7975,2199,Tag0,unknown
1545074425409,0,33,7.2509765625E-6,66,10,56,24127,11288,4544,7348,124230,15354,7975,2199,Tag0,unknown
1545074425409,0,48,1.0546875E-5,66,10,56,24127,11288,4544,7348,124230,15354,7975,2199,Tag0,unknown
1545074425410,0,69,1.51611328125E-5,66,10,56,24127,11288,4544,7348,124230,15354,7975,2199,Tag0,unknown
1545074425410,0,68,1.4941406250000001E-5,66,10,56,24127,11288,4544,7348,124230,15354,7975,2199,Tag0,unknown
1545074425410,0,50,1.0986328125E-5,66,10,56,24127,11288,4544,7348,124230,15354,7975,2199,Tag0,unknown
1545074425410,0,35,7.6904296875E-6,66,10,56,24127,11288,4544,7348,124230,15354,7975,2199,Tag0,unknown
1545074425410,0,51,1.1206054687499999E-5,66,10,56,24127,11288,4544,7348,124230,15354,7975,2199,Tag0,unknown
1545074425426,0,73,1.6040039062500002E-5,66,10,56,24127,11288,4544,7348,124230,15354,7975,2199,Tag0,unknown
1545074425426,0,64,1.40625E-5,66,10,56,24127,11288,4544,7348,124230,15354,7975,2199,Tag0,unknown
1545074425427,0,39,8.5693359375E-6,66,10,56,24127,11288,4544,7348,124230,15354,7975,2199,Tag0,unknown
1545074425430,0,37,8.1298828125E-6,66,10,56,24127,11288,4544,7348,124230,15354,7975,2199,Tag0,unknown
1545074425430,0,54,1.1865234375000001E-5,66,10,56,24127,11288,4544,7348,124230,15354,7975,2199,Tag0,unknown
1545074425430,0,76,1.669921875E-5,66,10,56,24127,11288,4544,7348,124230,15354,7975,2199,Tag0,unknown
1545074425431,0,60,1.318359375E-5,66,10,56,24127,11288,4544,7348,124230,15354,7975,2199,Tag0,unknown
1545074425431,0,17,3.7353515625000003E-6,66,10,56,24127,11288,4544,7348,124230,15354,7975,2199,Tag0,unknown
1545074425431,0,1,2.197265625E-7,66,10,56,24127,11288,4544,7348,124230,15354,7975,2199,Tag0,unknown
1545074425442,0,34,7.4707031250000005E-6,66,10,56,24127,11288,4544,7348,124230,15354,7975,2199,Tag0,unknown
1545074425442,0,71,1.56005859375E-5,66,10,56,24127,11288,4544,7348,124230,15354,7975,2199,Tag0,unknown
1545074425443,0,70,1.5380859375E-5,66,10,56,24127,11288,4544,7348,124230,15354,7975,2199,Tag0,unknown
1545074425443,0,26,5.712890625E-6,66,10,56,24127,11288,4544,7348,124230,15354,7975,2199,Tag0,unknown
1545074425443,0,-266,-5.8447265625E-5,66,10,56,24127,11288,4544,7348,124230,15354,7975,2199,Tag0,unknown
1545074425443,0,-262,-5.7568359375E-5,66,10,56,24127,11288,4544,7348,124230,15354,7975,2199,Tag0,unknown
1545074425443,0,9,1.9775390625E-6,66,10,56,24127,11288,4544,7348,124230,15354,7975,2199,Tag0,unknown
1545074425444,0,2,4.39453125E-7,66,10,56,24127,11288,4544,7348,124230,15354,7975,2199,Tag0,unknown
1545074425461,0,-266,-5.8447265625E-5,66,10,56,24127,11288,4544,7348,124230,15354,7975,2199,Tag0,unknown
1545074425461,0,-258,-5.6689453125000004E-5,66,10,56,24127,11288,4544,7348,124230,15354,7975,2199,Tag0,unknown
1545074425462,0,32,7.03125E-6,66,10,56,24127,11288,4544,7348,124230,15354,7975,2199,Tag0,unknown
1545074425462,0,68,1.4941406250000001E-5,66,10,56,24127,11288,4544,7348,124230,15354,7975,2199,Tag0,unknown
1545074425462,0,67,1.4721679687500002E-5,66,10,56,24127,11288,4544,7348,124230,15354,7975,2199,Tag0,unknown
1545074425462,0,37,8.1298828125E-6,66,10,56,24127,11288,4544,7348,124230,15354,7975,2199,Tag0,unknown
1545074425465,0,16,3.515625E-6,66,10,56,24127,11288,4544,7348,124230,15354,7975,2199,Tag0,unknown
1545074425465,0,25,5.4931640625E-6,66,10,56,24127,11288,4544,7348,124230,15354,7975,2199,Tag0,unknown
1545074425465,0,64,1.40625E-5,66,10,56,24127,11288,4544,7348,124230,15354,7975,2199,Tag0,unknown
1545074425477,0,77,1.69189453125E-5,66,10,56,24127,11288,4544,7348,124230,15354,7975,2199,Tag0,unknown
1545074425477,0,44,9.66796875E-6,66,10,56,24127,11288,4544,7348,124230,15354,7975,2199,Tag0,unknown
1545074425478,0,-259,-5.69091796875E-5,66,10,56,24127,11288,4544,7348,124230,15354,7975,2199,Tag0,unknown
1545074425478,0,-262,-5.7568359375E-5,66,10,56,24127,11288,4544,7348,124230,15354,7975,2199,Tag0,unknown
1545074425479,0,32,7.03125E-6,66,10,56,24127,11288,4544,7348,124230,15354,7975,2199,Tag0,unknown
1545074425479,0,54,1.1865234375000001E-5,66,10,56,24127,11288,4544,7348,124230,15354,7975,2199,Tag0,unknown
1545074425479,0,41,9.008789062499999E-6,66,10,56,24127,11288,4544,7348,124230,15354,7975,2199,Tag0,unknown
1545074425497,0,18,3.955078125E-6,66,10,56,24127,11288,4544,7348,124230,15354,7975,2199,Tag0,unknown
1545074425498,0,25,5.4931640625E-6,66,10,56,24127,11288,4544,7348,124230,15354,7975,2199,Tag0,unknown
1545074425498,0,55,1.20849609375E-5,66,10,56,24127,11288,4544,7348,124230,15354,7975,2199,Tag0,unknown
1545074425498,0,68,1.4941406250000001E-5,66,10,56,24127,11288,4544,7348,124230,15354,7975,2199,Tag0,unknown
1545074425499,0,57,1.2524414062500001E-5,66,10,56,24127,11288,4544,7348,124230,15354,7975,2199,Tag0,unknown
1545074425499,0,35,7.6904296875E-6,66,10,56,24127,11288,4544,7348,124230,15354,7975,2199,Tag0,unknown
1545074425502,0,23,5.0537109375E-6,66,10,56,24127,11288,4544,7348,124230,15354,7975,2199,Tag0,unknown
1545074425502,0,55,1.20849609375E-5,66,10,56,24127,11288,4544,7348,124230,15354,7975,2199,Tag0,unknown
1545074425502,0,86,1.8896484375000003E-5,66,10,56,24127,11288,4544,7348,124230,15354,7975,2199,Tag0,unknown
1545074425502,0,64,1.40625E-5,66,10,56,24127,11288,4544,7348,124230,15354,7975,2199,Tag0,unknown
1545074425503,0,19,4.1748046875E-6,66,10,56,24127,11288,4544,7348,124230,15354,7975,2199,Tag0,unknown
1545074425503,0,2,4.39453125E-7,66,10,56,24127,11288,4544,7348,124230,15354,7975,2199,Tag0,unknown
1545074425509,0,25,5.4931640625E-6,66,10,56,24127,11288,4544,7348,124230,15354,7975,2199,Tag0,unknown
1545074425509,0,69,1.51611328125E-5,66,10,56,24127,11288,4544,7348,124230,15354,7975,2199,Tag0,unknown
1545074425509,0,87,1.91162109375E-5,66,10,56,24127,11288,4544,7348,124230,15354,7975,2199,Tag0,unknown
1545074425510,0,66,1.4501953125E-5,66,10,56,24127,11288,4544,7348,124230,15354,7975,2199,Tag0,unknown
1545074425510,0,26,5.712890625E-6,66,10,56,24127,11288,4544,7348,124230,15354,7975,2199,Tag0,unknown
1545074425510,0,25,5.4931640625E-6,66,10,56,24127,11288,4544,7348,124230,15354,7975,2199,Tag0,unknown
1545074425526,0,56,1.23046875E-5,66,10,56,24127,11288,4544,7348,124230,15354,7975,2199,Tag0,unknown
1545074425526,0,59,1.29638671875E-5,66,10,56,24127,11288,4544,7348,124230,15354,7975,2199,Tag0,unknown
1545074425526,0,24,5.2734375E-6,66,10,56,24127,11288,4544,7348,124230,15354,7975,2199,Tag0,unknown
1545074425526,0,-264,-5.80078125E-5,66,10,56,24127,11288,4544,7348,124230,15354,7975,2199,Tag0,unknown
1545074425527,0,7,1.5380859375E-6,66,10,56,24127,11288,4544,7348,124230,15354,7975,2199,Tag0,unknown
1545074425527,0,65,1.42822265625E-5,66,10,56,24127,11288,4544,7348,124230,15354,7975,2199,Tag0,unknown
1545074425530,0,105,2.30712890625E-5,66,10,56,24127,11288,4544,7348,124230,15354,7975,2199,Tag0,unknown
1545074425530,0,89,1.95556640625E-5,66,10,56,24127,11288,4544,7348,124230,15354,7975,2199,Tag0,unknown
1545074425530,0,39,8.5693359375E-6,66,10,56,24127,11288,4544,7348,124230,15354,7975,2199,Tag0,unknown
1545074425543,0,12,2.63671875E-6,66,10,56,24127,11288,4544,7348,124230,15354,7975,2199,Tag0,unknown
1545074425544,0,27,5.9326171875000005E-6,66,10,56,24127,11288,4544,7348,124230,15354,7975,2199,Tag0,unknown
1545074425544,0,36,7.91015625E-6,66,10,56,24127,11288,4544,7348,124230,15354,7975,2199,Tag0,unknown
1545074425544,0,22,4.833984375E-6,66,10,56,24127,11288,4544,7348,124230,15354,7975,2199,Tag0,unknown
1545074425544,0,1,2.197265625E-7,66,10,56,24127,11288,4544,7348,124230,15354,7975,2199,Tag0,unknown
1545074425544,0,3,6.591796875E-7,66,10,56,24127,11288,4544,7348,124230,15354,7975,2199,Tag0,unknown
1545074425545,0,21,4.614257812500001E-6,66,10,56,24127,11288,4544,7348,124230,15354,7975,2199,Tag0,unknown
1545074425562,0,10,2.197265625E-6,66,10,56,24127,11288,4544,7348,124230,15354,7975,2199,Tag0,unknown
1545074425562,0,-276,-6.064453125E-5,66,10,56,24127,11288,4544,7348,124230,15354,7975,2199,Tag0,unknown
1545074425563,0,-278,-6.108398437500001E-5,66,10,56,24127,11288,4544,7348,124230,15354,7975,2199,Tag0,unknown
1545074425565,0,12,2.63671875E-6,66,10,56,24127,11288,4544,7348,124230,15354,7975,2199,Tag0,unknown
1545074425566,0,53,1.1645507812500002E-5,66,10,56,24127,11288,4544,7348,124230,15354,7975,2199,Tag0,unknown
1545074425566,0,66,1.4501953125E-5,66,10,56,24127,11288,4544,7348,124230,15354,7975,2199,Tag0,unknown
1545074425566,0,48,1.0546875E-5,66,10,56,24127,11288,4544,7348,124230,15354,7975,2199,Tag0,unknown
1545074425566,0,21,4.614257812500001E-6,66,10,56,24127,11288,4544,7348,124230,15354,7975,2199,Tag0,unknown
1545074425566,0,27,5.9326171875000005E-6,66,10,56,24127,11288,4544,7348,124230,15354,7975,2199,Tag0,unknown
1545074425567,0,64,1.40625E-5,66,10,56,24127,11288,4544,7348,124230,15354,7975,2199,Tag0,unknown
1545074425567,0,87,1.91162109375E-5,66,10,56,24127,11288,4544,7348,124230,15354,7975,2199,Tag0,unknown
1545074425577,0,83,1.82373046875E-5,66,10,56,24127,11288,4544,7348,124230,15354,7975,2199,Tag0,unknown
1545074425578,0,69,1.51611328125E-5,66,10,56,24127,11288,4544,7348,124230,15354,7975,2199,Tag0,unknown
1545074425578,0,70,1.5380859375E-5,66,10,56,24127,11288,4544,7348,124230,15354,7975,2199,Tag0,unknown
1545074425578,0,76,1.669921875E-5,66,10,56,24127,11288,4544,7348,124230,15354,7975,2199,Tag0,unknown
1545074425578,0,70,1.5380859375E-5,66,10,56,24127,11288,4544,7348,124230,15354,7975,2199,Tag0,unknown
1545074425579,0,39,8.5693359375E-6,66,10,56,24127,11288,4544,7348,124230,15354,7975,2199,Tag0,unknown
1545074425579,0,7,1.5380859375E-6,66,10,56,24127,11288,4544,7348,124230,15354,7975,2199,Tag0,unknown
1545074425594,0,6,1.318359375E-6,66,10,56,24127,11288,4544,7348,124230,15354,7975,2199,Tag0,unknown
1545074425595,0,37,8.1298828125E-6,66,10,56,24127,11288,4544,7348,124230,15354,7975,2199,Tag0,unknown
